# Transition                      Si 2p
# Notes                           
# Creation Comment                
# Energy Mode                     KE
# Start Energy in eV              1141.6
# End Energy in eV                1163.6
# Energy Step in eV               0.1
# Number Of Sweeps                20
# Dwell Time per Sweep in s       0.3
# Analyser Mode                   CAE
# Pass Energy in eV/Retard Ratio  25
# Magnification                   high
# Divide Voltages By 10           off
# Excitation Source               Mg Ka 1253.6 eV normal
# Excitation Energy in eV         1253.6
# Analyser Workfunction in eV     4.5
# Entrance Slit                   6 x 12 mm
# Exit Slit                       5 x 11 mm
# 
# 
# Kinetic Energy in eV         Counts
# --------------------         ------
1141.600                   10038.5000
1141.700                    9988.5000
1141.800                   10121.5000
1141.900                    9876.7500
1142.000                    9931.2500
1142.100                    9896.5000
1142.200                    9780.0000
1142.300                    9786.5000
1142.400                    9690.5000
1142.500                    9712.2500
1142.600                    9602.0000
1142.700                    9654.7500
1142.800                    9780.5000
1142.900                    9596.5000
1143.000                    9532.0000
1143.100                    9473.2500
1143.200                    9679.5000
1143.300                    9429.2500
1143.400                    9401.2500
1143.500                    9365.0000
1143.600                    9409.2500
1143.700                    9284.7500
1143.800                    9292.5000
1143.900                    9426.0000
1144.000                    9512.5000
1144.100                    9315.2500
1144.200                    9275.7500
1144.300                    9298.0000
1144.400                    9307.5000
1144.500                    9403.7500
1144.600                    9367.5000
1144.700                    9420.5000
1144.800                    9184.7500
1144.900                    9273.2500
1145.000                    9311.5000
1145.100                    9151.2500
1145.200                    9254.5000
1145.300                    9373.7500
1145.400                    9289.0000
1145.500                    9358.5000
1145.600                    9489.5000
1145.700                    9300.2500
1145.800                    9177.0000
1145.900                    9394.5000
1146.000                    9489.5000
1146.100                    9415.2500
1146.200                    9468.0000
1146.300                    9530.5000
1146.400                    9439.7500
1146.500                    9557.0000
1146.600                    9526.7500
1146.700                    9612.0000
1146.800                    9876.7500
1146.900                    9821.0000
1147.000                    9734.5000
1147.100                    9770.2500
1147.200                    9922.0000
1147.300                   10112.2500
1147.400                   10292.7500
1147.500                   10332.0000
1147.600                   10572.7500
1147.700                   10659.5000
1147.800                   10732.7500
1147.900                   10882.7500
1148.000                   11159.2500
1148.100                   11192.5000
1148.200                   11542.2500
1148.300                   11776.5000
1148.400                   11917.5000
1148.500                   12111.5000
1148.600                   12150.2500
1148.700                   12442.5000
1148.800                   12555.5000
1148.900                   12673.7500
1149.000                   12864.2500
1149.100                   12884.7500
1149.200                   13027.7500
1149.300                   13077.5000
1149.400                   13146.7500
1149.500                   13123.2500
1149.600                   13366.2500
1149.700                   13018.5000
1149.800                   12819.7500
1149.900                   12981.7500
1150.000                   12784.2500
1150.100                   12757.2500
1150.200                   12409.2500
1150.300                   12377.7500
1150.400                   12305.7500
1150.500                   11902.7500
1150.600                   11822.5000
1150.700                   11748.5000
1150.800                   11368.7500
1150.900                   11126.2500
1151.000                   10954.5000
1151.100                   10845.2500
1151.200                   10649.0000
1151.300                   10348.2500
1151.400                   10369.5000
1151.500                   10088.2500
1151.600                    9986.7500
1151.700                    9799.2500
1151.800                    9692.7500
1151.900                    9682.2500
1152.000                    9693.5000
1152.100                    9492.0000
1152.200                    9241.2500
1152.300                    9343.0000
1152.400                    9203.5000
1152.500                    9323.0000
1152.600                    9144.0000
1152.700                    9172.5000
1152.800                    9040.2500
1152.900                    9093.7500
1153.000                    9040.7500
1153.100                    9217.5000
1153.200                    9342.5000
1153.300                    9140.0000
1153.400                    8963.5000
1153.500                    9015.2500
1153.600                    8880.7500
1153.700                    9024.5000
1153.800                    9052.0000
1153.900                    8987.0000
1154.000                    8936.0000
1154.100                    9063.0000
1154.200                    8966.5000
1154.300                    8991.2500
1154.400                    8908.5000
1154.500                    8911.0000
1154.600                    8925.2500
1154.700                    8999.2500
1154.800                    9010.2500
1154.900                    8936.5000
1155.000                    8780.2500
1155.100                    8909.5000
1155.200                    8945.5000
1155.300                    8951.2500
1155.400                    8784.0000
1155.500                    9049.0000
1155.600                    8902.0000
1155.700                    8829.5000
1155.800                    9101.5000
1155.900                    9194.5000
1156.000                    8951.0000
1156.100                    8869.0000
1156.200                    9050.0000
1156.300                    8958.5000
1156.400                    9033.0000
1156.500                    8891.5000
1156.600                    9029.0000
1156.700                    8954.5000
1156.800                    9178.7500
1156.900                    9140.0000
1157.000                    9128.2500
1157.100                    9158.5000
1157.200                    8994.2500
1157.300                    8990.0000
1157.400                    8996.5000
1157.500                    9224.7500
1157.600                    9211.0000
1157.700                    9303.7500
1157.800                    9099.5000
1157.900                    9288.2500
1158.000                    9164.2500
1158.100                    9209.2500
1158.200                    9300.7500
1158.300                    9157.2500
1158.400                    9268.5000
1158.500                    9294.7500
1158.600                    9245.5000
1158.700                    9373.2500
1158.800                    9387.7500
1158.900                    9241.2500
1159.000                    9220.5000
1159.100                    9088.7500
1159.200                    9254.5000
1159.300                    9256.0000
1159.400                    9210.0000
1159.500                    9186.0000
1159.600                    9106.7500
1159.700                    9087.0000
1159.800                    9244.0000
1159.900                    9241.5000
1160.000                    9168.5000
1160.100                    9166.7500
1160.200                    9156.0000
1160.300                    9065.2500
1160.400                    9114.5000
1160.500                    9274.5000
1160.600                    9263.2500
1160.700                    9110.2500
1160.800                    9020.7500
1160.900                    9065.5000
1161.000                    9109.7500
1161.100                    9130.7500
1161.200                    9143.0000
1161.300                    9012.0000
1161.400                    9118.0000
1161.500                    9040.2500
1161.600                    9060.2500
1161.700                    9045.2500
1161.800                    8970.0000
1161.900                    9044.5000
1162.000                    9015.0000
1162.100                    8965.7500
1162.200                    9104.2500
1162.300                    8949.2500
1162.400                    9016.0000
1162.500                    8961.5000
1162.600                    8970.0000
1162.700                    8917.5000
1162.800                    8978.2500
1162.900                    8996.0000
1163.000                    8946.7500
1163.100                    8789.7500
1163.200                    8867.0000
1163.300                    8992.2500
1163.400                    8859.5000
1163.500                    8812.2500
1163.600                    8685.2500
