# Transition                      wide 
# Notes                           
# Creation Comment                
# Energy Mode                     KE
# Start Energy in eV              149.6
# End Energy in eV                1259.6
# Energy Step in eV               0.5
# Number Of Sweeps                1
# Dwell Time per Sweep in s       0.3
# Analyser Mode                   CAE
# Pass Energy in eV/Retard Ratio  50
# Magnification                   high
# Divide Voltages By 10           off
# Excitation Source               Mg Ka 1253.6 eV normal
# Excitation Energy in eV         1253.6
# Analyser Workfunction in eV     4.5
# Entrance Slit                   6 x 12 mm
# Exit Slit                       5 x 11 mm
# 
# 
# Kinetic Energy in eV         Counts
# --------------------         ------
149.600                    64408.6000
150.100                    63916.5000
150.600                    63969.7000
151.100                    64094.1000
151.600                    63647.6000
152.100                    63919.8000
152.600                    64085.9000
153.100                    64112.9000
153.600                    64011.7000
154.100                    63958.3000
154.600                    63856.1000
155.100                    63580.2000
155.600                    63578.3000
156.100                    64009.2000
156.600                    63648.9000
157.100                    63894.1000
157.600                    64126.7000
158.100                    63503.3000
158.600                    63073.6000
159.100                    63157.3000
159.600                    63822.2000
160.100                    63601.9000
160.600                    63338.9000
161.100                    63518.1000
161.600                    63005.9000
162.100                    62813.0000
162.600                    62874.2000
163.100                    63268.1000
163.600                    62932.1000
164.100                    62719.2000
164.600                    63023.0000
165.100                    63090.1000
165.600                    63171.7000
166.100                    63114.5000
166.600                    62928.9000
167.100                    62866.2000
167.600                    62523.7000
168.100                    62455.2000
168.600                    62895.0000
169.100                    62523.8000
169.600                    62628.3000
170.100                    62357.4000
170.600                    62333.6000
171.100                    62080.0000
171.600                    62559.9000
172.100                    62436.3000
172.600                    62070.7000
173.100                    62199.8000
173.600                    61829.1000
174.100                    61527.3000
174.600                    61609.1000
175.100                    61708.4000
175.600                    61711.6000
176.100                    61778.9000
176.600                    62020.5000
177.100                    62059.6000
177.600                    61581.3000
178.100                    61794.8000
178.600                    61762.5000
179.100                    61736.5000
179.600                    62056.6000
180.100                    62245.7000
180.600                    62498.1000
181.100                    62463.1000
181.600                    62932.4000
182.100                    62165.6000
182.600                    61712.1000
183.100                    61332.1000
183.600                    61476.3000
184.100                    61264.3000
184.600                    61314.9000
185.100                    61392.0000
185.600                    61666.9000
186.100                    61161.3000
186.600                    61264.5000
187.100                    60961.1000
187.600                    61022.4000
188.100                    60742.6000
188.600                    61341.7000
189.100                    61051.1000
189.600                    60984.7000
190.100                    61095.4000
190.600                    60859.2000
191.100                    60790.1000
191.600                    60671.2000
192.100                    60582.1000
192.600                    60789.6000
193.100                    60306.3000
193.600                    60511.2000
194.100                    60655.9000
194.600                    60741.2000
195.100                    60467.6000
195.600                    60042.9000
196.100                    60191.8000
196.600                    59993.2000
197.100                    59857.1000
197.600                    59983.4000
198.100                    59833.4000
198.600                    60323.1000
199.100                    59928.4000
199.600                    59823.8000
200.100                    60018.3000
200.600                    59783.9000
201.100                    60057.6000
201.600                    60207.8000
202.100                    59868.9000
202.600                    59951.5000
203.100                    60039.2000
203.600                    59783.8000
204.100                    59702.1000
204.600                    59985.0000
205.100                    59943.3000
205.600                    59591.5000
206.100                    59974.3000
206.600                    59395.3000
207.100                    59624.9000
207.600                    59463.7000
208.100                    59425.7000
208.600                    59521.5000
209.100                    59527.7000
209.600                    59382.1000
210.100                    59555.9000
210.600                    59439.9000
211.100                    59615.9000
211.600                    59506.4000
212.100                    59215.1000
212.600                    59759.3000
213.100                    59348.1000
213.600                    59567.3000
214.100                    59453.0000
214.600                    59244.0000
215.100                    59048.6000
215.600                    59297.4000
216.100                    59196.9000
216.600                    59313.3000
217.100                    58997.1000
217.600                    58979.9000
218.100                    58807.1000
218.600                    59347.0000
219.100                    59227.0000
219.600                    59278.1000
220.100                    59565.2000
220.600                    59189.7000
221.100                    59438.0000
221.600                    58991.1000
222.100                    59164.6000
222.600                    58642.1000
223.100                    58763.6000
223.600                    58772.1000
224.100                    58869.0000
224.600                    58355.6000
225.100                    58622.0000
225.600                    58664.5000
226.100                    58970.4000
226.600                    58975.2000
227.100                    58611.7000
227.600                    58470.7000
228.100                    58487.4000
228.600                    58775.4000
229.100                    58462.0000
229.600                    58618.3000
230.100                    58356.9000
230.600                    57985.7000
231.100                    58304.4000
231.600                    58251.1000
232.100                    58413.0000
232.600                    58334.3000
233.100                    58413.1000
233.600                    58658.7000
234.100                    58421.6000
234.600                    58074.7000
235.100                    58475.0000
235.600                    58684.0000
236.100                    58984.0000
236.600                    58984.0000
237.100                    59330.5000
237.600                    59515.9000
238.100                    59735.1000
238.600                    60394.4000
239.100                    60570.8000
239.600                    60361.0000
240.100                    60010.1000
240.600                    59860.8000
241.100                    59117.4000
241.600                    58712.9000
242.100                    58570.8000
242.600                    58722.5000
243.100                    58594.2000
243.600                    58547.5000
244.100                    58509.5000
244.600                    58487.1000
245.100                    58418.2000
245.600                    58408.7000
246.100                    58240.6000
246.600                    58250.5000
247.100                    58081.3000
247.600                    58184.9000
248.100                    57882.1000
248.600                    57784.5000
249.100                    57577.6000
249.600                    57539.6000
250.100                    57382.3000
250.600                    57955.3000
251.100                    57922.8000
251.600                    58241.0000
252.100                    58215.7000
252.600                    58172.3000
253.100                    58166.3000
253.600                    58233.6000
254.100                    58669.1000
254.600                    58500.5000
255.100                    58332.0000
255.600                    58750.1000
256.100                    58762.8000
256.600                    58950.7000
257.100                    59161.4000
257.600                    58939.7000
258.100                    58713.7000
258.600                    58481.9000
259.100                    58568.0000
259.600                    58720.7000
260.100                    58596.5000
260.600                    58646.2000
261.100                    58538.3000
261.600                    58647.3000
262.100                    58802.9000
262.600                    58479.2000
263.100                    58316.5000
263.600                    57958.9000
264.100                    57675.9000
264.600                    57547.0000
265.100                    57245.8000
265.600                    57025.3000
266.100                    56716.4000
266.600                    56463.4000
267.100                    56057.6000
267.600                    55600.5000
268.100                    55385.0000
268.600                    55441.3000
269.100                    54994.3000
269.600                    54668.6000
270.100                    54413.6000
270.600                    53676.4000
271.100                    53507.8000
271.600                    53595.5000
272.100                    53349.8000
272.600                    53089.1000
273.100                    52798.5000
273.600                    52976.7000
274.100                    53086.7000
274.600                    52527.3000
275.100                    52415.0000
275.600                    52103.1000
276.100                    51798.5000
276.600                    51789.8000
277.100                    51503.9000
277.600                    51756.7000
278.100                    51759.9000
278.600                    51340.4000
279.100                    51353.0000
279.600                    51172.4000
280.100                    51063.0000
280.600                    50638.0000
281.100                    51057.7000
281.600                    51056.0000
282.100                    50801.6000
282.600                    50818.9000
283.100                    50799.5000
283.600                    50816.9000
284.100                    50908.6000
284.600                    50812.0000
285.100                    50630.6000
285.600                    50704.0000
286.100                    50429.3000
286.600                    50512.4000
287.100                    50333.2000
287.600                    50545.0000
288.100                    50723.9000
288.600                    50638.4000
289.100                    50712.0000
289.600                    50523.0000
290.100                    50478.0000
290.600                    50486.3000
291.100                    50678.0000
291.600                    50799.5000
292.100                    50365.8000
292.600                    50528.7000
293.100                    50524.2000
293.600                    50896.0000
294.100                    50614.8000
294.600                    50226.7000
295.100                    50104.2000
295.600                    50213.2000
296.100                    50216.1000
296.600                    50217.1000
297.100                    49757.2000
297.600                    49648.8000
298.100                    49944.3000
298.600                    49926.2000
299.100                    49867.4000
299.600                    49525.9000
300.100                    49665.1000
300.600                    49506.6000
301.100                    49255.6000
301.600                    49183.5000
302.100                    49064.2000
302.600                    49116.0000
303.100                    48882.5000
303.600                    48545.8000
304.100                    48761.3000
304.600                    48391.1000
305.100                    48300.3000
305.600                    48403.9000
306.100                    48536.4000
306.600                    48415.6000
307.100                    48576.8000
307.600                    48110.7000
308.100                    48556.3000
308.600                    48427.3000
309.100                    48227.7000
309.600                    48426.6000
310.100                    48458.2000
310.600                    48298.2000
311.100                    48155.7000
311.600                    48148.6000
312.100                    47842.2000
312.600                    48210.3000
313.100                    48057.9000
313.600                    47985.9000
314.100                    48068.3000
314.600                    47834.3000
315.100                    47660.6000
315.600                    47894.5000
316.100                    47752.4000
316.600                    47669.0000
317.100                    47191.5000
317.600                    47543.8000
318.100                    47492.7000
318.600                    47492.3000
319.100                    47601.8000
319.600                    47789.4000
320.100                    47787.4000
320.600                    47993.2000
321.100                    47805.6000
321.600                    47233.0000
322.100                    47025.9000
322.600                    46908.4000
323.100                    47567.5000
323.600                    47436.7000
324.100                    47447.0000
324.600                    47367.2000
325.100                    47361.8000
325.600                    47315.8000
326.100                    46909.7000
326.600                    47048.8000
327.100                    47081.4000
327.600                    47028.9000
328.100                    46799.4000
328.600                    46979.1000
329.100                    46760.2000
329.600                    46506.2000
330.100                    46810.8000
330.600                    46630.6000
331.100                    46457.9000
331.600                    46517.4000
332.100                    46271.5000
332.600                    46197.4000
333.100                    46145.5000
333.600                    46463.0000
334.100                    46076.9000
334.600                    46156.6000
335.100                    46178.0000
335.600                    45866.7000
336.100                    46022.5000
336.600                    46083.5000
337.100                    45952.9000
337.600                    46024.4000
338.100                    45896.2000
338.600                    45652.9000
339.100                    45917.9000
339.600                    46005.7000
340.100                    45660.2000
340.600                    45270.1000
341.100                    45108.0000
341.600                    45260.0000
342.100                    45270.9000
342.600                    45201.8000
343.100                    44989.2000
343.600                    45232.5000
344.100                    44737.1000
344.600                    44494.2000
345.100                    44546.5000
345.600                    44330.3000
346.100                    44232.3000
346.600                    44032.4000
347.100                    44240.0000
347.600                    44228.0000
348.100                    43830.5000
348.600                    43535.1000
349.100                    43755.4000
349.600                    43708.9000
350.100                    43544.3000
350.600                    43301.8000
351.100                    43716.8000
351.600                    43725.3000
352.100                    43358.0000
352.600                    43537.8000
353.100                    43296.7000
353.600                    43007.8000
354.100                    43109.0000
354.600                    43423.9000
355.100                    43122.2000
355.600                    42941.5000
356.100                    42429.1000
356.600                    42760.3000
357.100                    43150.0000
357.600                    42649.7000
358.100                    42650.5000
358.600                    42716.4000
359.100                    42790.9000
359.600                    42305.4000
360.100                    42468.7000
360.600                    42450.5000
361.100                    42477.2000
361.600                    42352.1000
362.100                    42547.9000
362.600                    42688.9000
363.100                    42631.0000
363.600                    42330.8000
364.100                    42124.7000
364.600                    42540.9000
365.100                    42506.5000
365.600                    42269.6000
366.100                    42350.5000
366.600                    42268.2000
367.100                    42631.4000
367.600                    42099.2000
368.100                    42030.0000
368.600                    42171.1000
369.100                    42161.5000
369.600                    42044.9000
370.100                    42127.2000
370.600                    42158.9000
371.100                    42362.6000
371.600                    42275.2000
372.100                    42475.6000
372.600                    42108.5000
373.100                    42281.9000
373.600                    41941.3000
374.100                    42063.9000
374.600                    42168.0000
375.100                    42262.0000
375.600                    42287.2000
376.100                    41984.2000
376.600                    42344.9000
377.100                    41802.4000
377.600                    42035.8000
378.100                    42095.8000
378.600                    41601.1000
379.100                    42176.9000
379.600                    42002.3000
380.100                    42098.2000
380.600                    41968.7000
381.100                    41758.2000
381.600                    41763.1000
382.100                    41743.2000
382.600                    41498.4000
383.100                    41468.3000
383.600                    41219.0000
384.100                    41239.8000
384.600                    40938.5000
385.100                    40525.1000
385.600                    40460.9000
386.100                    40368.3000
386.600                    40268.2000
387.100                    40209.7000
387.600                    40115.8000
388.100                    39716.9000
388.600                    39777.6000
389.100                    39860.4000
389.600                    39540.5000
390.100                    39366.3000
390.600                    39422.6000
391.100                    39083.3000
391.600                    39426.8000
392.100                    39088.8000
392.600                    39382.2000
393.100                    39346.3000
393.600                    39445.9000
394.100                    39723.3000
394.600                    39671.3000
395.100                    40079.5000
395.600                    40482.7000
396.100                    40931.8000
396.600                    41685.4000
397.100                    42787.8000
397.600                    43395.7000
398.100                    44320.1000
398.600                    44585.6000
399.100                    45006.9000
399.600                    44564.3000
400.100                    44450.4000
400.600                    43719.5000
401.100                    42742.2000
401.600                    42043.4000
402.100                    41066.6000
402.600                    40457.9000
403.100                    40095.7000
403.600                    40186.2000
404.100                    40396.6000
404.600                    40533.3000
405.100                    40338.3000
405.600                    40372.1000
406.100                    40627.5000
406.600                    40376.2000
407.100                    39521.1000
407.600                    38816.1000
408.100                    38050.1000
408.600                    37338.2000
409.100                    36425.4000
409.600                    35844.0000
410.100                    35640.8000
410.600                    35058.6000
411.100                    34728.7000
411.600                    34406.8000
412.100                    34067.8000
412.600                    34014.5000
413.100                    34290.3000
413.600                    34332.7000
414.100                    34111.2000
414.600                    34049.6000
415.100                    33739.1000
415.600                    33984.8000
416.100                    33754.7000
416.600                    34103.7000
417.100                    33768.2000
417.600                    34099.5000
418.100                    33744.3000
418.600                    33806.1000
419.100                    33685.0000
419.600                    33938.4000
420.100                    33649.8000
420.600                    34046.1000
421.100                    34109.2000
421.600                    34286.1000
422.100                    34332.7000
422.600                    34313.6000
423.100                    34429.1000
423.600                    34704.9000
424.100                    34500.5000
424.600                    34435.4000
425.100                    34743.2000
425.600                    34693.6000
426.100                    34551.5000
426.600                    34635.8000
427.100                    34032.2000
427.600                    33721.9000
428.100                    33417.0000
428.600                    33508.9000
429.100                    33238.9000
429.600                    32924.7000
430.100                    33422.0000
430.600                    33248.5000
431.100                    33394.3000
431.600                    33372.2000
432.100                    33531.7000
432.600                    33191.5000
433.100                    33077.4000
433.600                    33088.9000
434.100                    32873.1000
434.600                    32570.1000
435.100                    32575.5000
435.600                    32775.9000
436.100                    32222.2000
436.600                    32516.8000
437.100                    32132.0000
437.600                    31993.9000
438.100                    32332.5000
438.600                    32323.8000
439.100                    32189.3000
439.600                    32076.9000
440.100                    32315.9000
440.600                    32217.3000
441.100                    32198.4000
441.600                    32156.3000
442.100                    32427.8000
442.600                    32582.4000
443.100                    32302.6000
443.600                    32324.3000
444.100                    32280.6000
444.600                    32030.1000
445.100                    32246.9000
445.600                    32541.9000
446.100                    32250.1000
446.600                    32221.2000
447.100                    32236.3000
447.600                    31966.1000
448.100                    31866.9000
448.600                    32432.7000
449.100                    32465.6000
449.600                    32290.7000
450.100                    32361.5000
450.600                    32437.4000
451.100                    32246.9000
451.600                    32221.1000
452.100                    31936.7000
452.600                    32270.7000
453.100                    32272.1000
453.600                    32404.0000
454.100                    32653.3000
454.600                    32647.5000
455.100                    32277.2000
455.600                    32136.9000
456.100                    32248.0000
456.600                    32342.1000
457.100                    32424.4000
457.600                    31932.4000
458.100                    32150.2000
458.600                    32506.0000
459.100                    32201.2000
459.600                    31942.0000
460.100                    31985.0000
460.600                    32022.3000
461.100                    32138.4000
461.600                    32042.3000
462.100                    31906.1000
462.600                    31647.9000
463.100                    31833.7000
463.600                    31492.3000
464.100                    31609.2000
464.600                    31557.2000
465.100                    31423.8000
465.600                    31183.6000
466.100                    31424.7000
466.600                    31618.9000
467.100                    31486.1000
467.600                    31348.7000
468.100                    31432.3000
468.600                    31395.3000
469.100                    31245.1000
469.600                    31216.9000
470.100                    31604.0000
470.600                    31134.2000
471.100                    31262.9000
471.600                    31532.6000
472.100                    31614.6000
472.600                    31287.9000
473.100                    31459.1000
473.600                    31410.0000
474.100                    31436.1000
474.600                    31453.0000
475.100                    31152.0000
475.600                    31056.9000
476.100                    31588.5000
476.600                    31272.7000
477.100                    30981.1000
477.600                    31350.7000
478.100                    31102.4000
478.600                    30981.7000
479.100                    31052.6000
479.600                    30894.8000
480.100                    30875.1000
480.600                    31010.2000
481.100                    30943.1000
481.600                    30879.6000
482.100                    30990.8000
482.600                    30924.1000
483.100                    31005.3000
483.600                    30969.3000
484.100                    31023.5000
484.600                    31218.2000
485.100                    30941.1000
485.600                    31131.2000
486.100                    31211.9000
486.600                    30998.4000
487.100                    31156.3000
487.600                    31149.4000
488.100                    30984.8000
488.600                    31304.5000
489.100                    31262.7000
489.600                    30976.1000
490.100                    31181.4000
490.600                    31070.9000
491.100                    31294.1000
491.600                    30874.3000
492.100                    30949.4000
492.600                    30942.0000
493.100                    30543.1000
493.600                    30643.4000
494.100                    30356.4000
494.600                    30151.7000
495.100                    30185.5000
495.600                    30190.9000
496.100                    29870.8000
496.600                    29764.1000
497.100                    29622.0000
497.600                    29397.1000
498.100                    29457.0000
498.600                    29641.1000
499.100                    29448.5000
499.600                    29216.1000
500.100                    29294.8000
500.600                    29269.8000
501.100                    29071.5000
501.600                    28610.9000
502.100                    29083.1000
502.600                    29023.4000
503.100                    29025.1000
503.600                    29348.4000
504.100                    29086.0000
504.600                    28986.6000
505.100                    29319.9000
505.600                    29361.9000
506.100                    29142.7000
506.600                    29517.7000
507.100                    29718.9000
507.600                    30037.9000
508.100                    30264.7000
508.600                    30474.6000
509.100                    30709.4000
509.600                    31148.4000
510.100                    31220.7000
510.600                    31399.0000
511.100                    31577.0000
511.600                    31294.6000
512.100                    31077.8000
512.600                    30484.4000
513.100                    30138.7000
513.600                    29825.2000
514.100                    29499.7000
514.600                    28880.8000
515.100                    28564.2000
515.600                    28233.7000
516.100                    27786.2000
516.600                    27779.2000
517.100                    27534.9000
517.600                    27340.6000
518.100                    27187.1000
518.600                    26693.1000
519.100                    26841.1000
519.600                    26704.6000
520.100                    26162.5000
520.600                    26202.7000
521.100                    25935.7000
521.600                    25906.7000
522.100                    25744.8000
522.600                    25578.8000
523.100                    25885.7000
523.600                    25567.0000
524.100                    25486.6000
524.600                    25517.1000
525.100                    25465.4000
525.600                    25356.1000
526.100                    25511.9000
526.600                    25562.7000
527.100                    25514.9000
527.600                    25406.7000
528.100                    25571.5000
528.600                    25503.2000
529.100                    25484.2000
529.600                    25581.5000
530.100                    25150.3000
530.600                    25448.8000
531.100                    25286.7000
531.600                    25402.7000
532.100                    25372.5000
532.600                    25160.7000
533.100                    25119.1000
533.600                    25310.0000
534.100                    25398.0000
534.600                    25306.7000
535.100                    25383.3000
535.600                    25333.0000
536.100                    25597.9000
536.600                    25530.6000
537.100                    25447.2000
537.600                    25045.9000
538.100                    25189.0000
538.600                    24904.7000
539.100                    24838.7000
539.600                    24872.6000
540.100                    24242.8000
540.600                    24552.4000
541.100                    24467.9000
541.600                    24381.2000
542.100                    24554.8000
542.600                    24611.0000
543.100                    24413.6000
543.600                    24505.1000
544.100                    24447.7000
544.600                    24638.4000
545.100                    24678.3000
545.600                    24729.4000
546.100                    25029.9000
546.600                    25216.4000
547.100                    25448.2000
547.600                    25962.2000
548.100                    26372.4000
548.600                    26454.9000
549.100                    26571.4000
549.600                    26523.5000
550.100                    26422.1000
550.600                    25779.5000
551.100                    24943.3000
551.600                    24616.4000
552.100                    24401.5000
552.600                    24065.8000
553.100                    24178.5000
553.600                    23807.4000
554.100                    23637.7000
554.600                    23681.5000
555.100                    23632.6000
555.600                    23884.2000
556.100                    23778.0000
556.600                    23701.4000
557.100                    23766.9000
557.600                    23804.0000
558.100                    23496.1000
558.600                    23832.2000
559.100                    23809.6000
559.600                    23806.9000
560.100                    23879.5000
560.600                    23649.1000
561.100                    23574.1000
561.600                    23550.5000
562.100                    23591.0000
562.600                    23687.2000
563.100                    23530.5000
563.600                    23774.7000
564.100                    23632.9000
564.600                    23404.7000
565.100                    23560.9000
565.600                    23265.8000
566.100                    23303.8000
566.600                    23222.8000
567.100                    23347.8000
567.600                    23247.2000
568.100                    23382.9000
568.600                    23235.9000
569.100                    23178.6000
569.600                    23168.9000
570.100                    23090.1000
570.600                    23088.5000
571.100                    23162.5000
571.600                    22996.8000
572.100                    22844.7000
572.600                    22901.9000
573.100                    22827.4000
573.600                    22746.6000
574.100                    22533.8000
574.600                    22435.0000
575.100                    22299.3000
575.600                    22443.6000
576.100                    22410.4000
576.600                    22167.9000
577.100                    22197.4000
577.600                    22190.3000
578.100                    22112.8000
578.600                    21737.5000
579.100                    21836.1000
579.600                    21794.2000
580.100                    21966.1000
580.600                    21682.1000
581.100                    21734.6000
581.600                    21539.2000
582.100                    21867.9000
582.600                    22244.5000
583.100                    22319.0000
583.600                    22850.4000
584.100                    23212.5000
584.600                    23907.4000
585.100                    24820.4000
585.600                    25573.3000
586.100                    26338.0000
586.600                    26959.1000
587.100                    26939.6000
587.600                    26622.0000
588.100                    25776.8000
588.600                    24655.8000
589.100                    23859.7000
589.600                    23133.7000
590.100                    22568.7000
590.600                    22085.3000
591.100                    21820.2000
591.600                    21621.6000
592.100                    21501.3000
592.600                    21357.1000
593.100                    21439.7000
593.600                    21175.1000
594.100                    21101.0000
594.600                    21307.6000
595.100                    21516.1000
595.600                    21188.7000
596.100                    21217.3000
596.600                    20999.3000
597.100                    21038.6000
597.600                    21032.3000
598.100                    20801.1000
598.600                    20577.2000
599.100                    20669.1000
599.600                    20684.1000
600.100                    20451.0000
600.600                    20509.3000
601.100                    20341.4000
601.600                    20074.4000
602.100                    20331.6000
602.600                    20236.2000
603.100                    20038.5000
603.600                    19896.9000
604.100                    20171.0000
604.600                    20122.4000
605.100                    20306.6000
605.600                    20288.8000
606.100                    20184.3000
606.600                    19929.6000
607.100                    19908.3000
607.600                    20065.8000
608.100                    20285.3000
608.600                    19901.5000
609.100                    19939.5000
609.600                    19938.7000
610.100                    19807.4000
610.600                    19874.0000
611.100                    20008.8000
611.600                    19956.7000
612.100                    19921.8000
612.600                    20038.1000
613.100                    19984.1000
613.600                    19780.4000
614.100                    19809.6000
614.600                    19901.5000
615.100                    19961.2000
615.600                    19960.1000
616.100                    19822.9000
616.600                    19819.9000
617.100                    19957.8000
617.600                    19718.5000
618.100                    19807.0000
618.600                    19767.3000
619.100                    19885.9000
619.600                    20033.4000
620.100                    20025.5000
620.600                    19922.5000
621.100                    19897.3000
621.600                    19784.8000
622.100                    19818.2000
622.600                    19787.7000
623.100                    19650.2000
623.600                    19872.7000
624.100                    19796.8000
624.600                    19649.6000
625.100                    19793.3000
625.600                    19726.2000
626.100                    19750.6000
626.600                    19634.1000
627.100                    19843.3000
627.600                    19621.4000
628.100                    19829.5000
628.600                    19724.3000
629.100                    19742.4000
629.600                    19674.1000
630.100                    19848.9000
630.600                    19933.9000
631.100                    19548.8000
631.600                    19543.7000
632.100                    19673.6000
632.600                    19826.7000
633.100                    19922.9000
633.600                    19788.7000
634.100                    19654.2000
634.600                    19523.3000
635.100                    19537.2000
635.600                    19635.0000
636.100                    19642.0000
636.600                    19655.6000
637.100                    19528.5000
637.600                    19518.1000
638.100                    19681.3000
638.600                    19715.2000
639.100                    19664.5000
639.600                    19739.9000
640.100                    19808.7000
640.600                    19785.9000
641.100                    19699.6000
641.600                    19566.8000
642.100                    19444.8000
642.600                    19562.0000
643.100                    19634.1000
643.600                    19601.1000
644.100                    19705.8000
644.600                    19488.7000
645.100                    19654.1000
645.600                    19585.7000
646.100                    19778.9000
646.600                    19551.4000
647.100                    19603.4000
647.600                    19580.4000
648.100                    19604.2000
648.600                    19646.6000
649.100                    19552.5000
649.600                    19790.9000
650.100                    19775.9000
650.600                    19835.9000
651.100                    19629.6000
651.600                    19834.7000
652.100                    19598.4000
652.600                    19642.4000
653.100                    19644.9000
653.600                    19732.7000
654.100                    19824.8000
654.600                    19643.5000
655.100                    19672.5000
655.600                    19700.5000
656.100                    19447.2000
656.600                    19543.9000
657.100                    19528.1000
657.600                    19708.2000
658.100                    19626.3000
658.600                    19488.0000
659.100                    19596.4000
659.600                    19645.6000
660.100                    19595.8000
660.600                    19577.6000
661.100                    19382.9000
661.600                    19462.9000
662.100                    19458.7000
662.600                    19512.9000
663.100                    19603.0000
663.600                    19428.7000
664.100                    19440.5000
664.600                    19420.4000
665.100                    19430.1000
665.600                    19649.1000
666.100                    19754.5000
666.600                    19503.9000
667.100                    19541.7000
667.600                    19608.7000
668.100                    19604.3000
668.600                    19517.7000
669.100                    19693.6000
669.600                    19477.3000
670.100                    19311.4000
670.600                    19457.7000
671.100                    19643.3000
671.600                    19503.5000
672.100                    19297.6000
672.600                    19528.7000
673.100                    19567.9000
673.600                    19659.2000
674.100                    19614.4000
674.600                    19470.5000
675.100                    19475.3000
675.600                    19553.5000
676.100                    19418.8000
676.600                    19706.3000
677.100                    19365.6000
677.600                    19394.3000
678.100                    19442.6000
678.600                    19389.9000
679.100                    19695.1000
679.600                    19533.4000
680.100                    19349.1000
680.600                    19489.7000
681.100                    19444.5000
681.600                    19324.4000
682.100                    19404.5000
682.600                    19341.8000
683.100                    19282.2000
683.600                    19348.6000
684.100                    19379.3000
684.600                    19313.4000
685.100                    19192.6000
685.600                    19392.3000
686.100                    19382.0000
686.600                    19195.2000
687.100                    19267.5000
687.600                    19359.5000
688.100                    19471.9000
688.600                    19361.2000
689.100                    19501.0000
689.600                    19298.3000
690.100                    19360.1000
690.600                    19483.6000
691.100                    19442.4000
691.600                    19242.2000
692.100                    19353.4000
692.600                    19208.4000
693.100                    19081.6000
693.600                    19342.5000
694.100                    19356.3000
694.600                    19210.7000
695.100                    19063.3000
695.600                    19365.0000
696.100                    19301.2000
696.600                    19206.1000
697.100                    19291.2000
697.600                    19733.4000
698.100                    19636.0000
698.600                    19499.9000
699.100                    19563.3000
699.600                    19589.0000
700.100                    19786.8000
700.600                    19606.8000
701.100                    19488.6000
701.600                    19509.9000
702.100                    19534.9000
702.600                    19444.2000
703.100                    19430.6000
703.600                    19411.7000
704.100                    19292.7000
704.600                    19407.2000
705.100                    19474.9000
705.600                    19531.7000
706.100                    19465.4000
706.600                    19166.6000
707.100                    19169.7000
707.600                    18972.7000
708.100                    18862.1000
708.600                    18747.7000
709.100                    18442.7000
709.600                    18146.4000
710.100                    18425.6000
710.600                    18060.8000
711.100                    18115.4000
711.600                    18176.2000
712.100                    18207.9000
712.600                    18099.0000
713.100                    17948.0000
713.600                    17793.9000
714.100                    17861.5000
714.600                    17919.6000
715.100                    17407.7000
715.600                    17401.1000
716.100                    17364.0000
716.600                    17388.1000
717.100                    17546.3000
717.600                    17659.3000
718.100                    18174.4000
718.600                    18910.0000
719.100                    19912.0000
719.600                    21470.5000
720.100                    23029.2000
720.600                    24438.0000
721.100                    25537.2000
721.600                    25697.2000
722.100                    25343.0000
722.600                    24552.9000
723.100                    23826.0000
723.600                    21953.6000
724.100                    19958.5000
724.600                    18318.4000
725.100                    17538.9000
725.600                    17091.2000
726.100                    16870.2000
726.600                    17031.9000
727.100                    17051.2000
727.600                    17039.8000
728.100                    17194.9000
728.600                    17067.1000
729.100                    17096.3000
729.600                    17151.5000
730.100                    17564.2000
730.600                    17520.0000
731.100                    17617.6000
731.600                    17612.5000
732.100                    17424.9000
732.600                    17085.0000
733.100                    17161.8000
733.600                    17062.7000
734.100                    16520.2000
734.600                    16615.5000
735.100                    16534.4000
735.600                    16692.2000
736.100                    16435.9000
736.600                    16508.9000
737.100                    16686.9000
737.600                    16589.6000
738.100                    16641.7000
738.600                    16639.4000
739.100                    16487.8000
739.600                    16432.7000
740.100                    16486.3000
740.600                    16568.5000
741.100                    16690.0000
741.600                    16493.1000
742.100                    16439.6000
742.600                    16538.0000
743.100                    16492.8000
743.600                    16378.6000
744.100                    16501.4000
744.600                    16454.3000
745.100                    16445.4000
745.600                    16378.0000
746.100                    16281.8000
746.600                    16114.6000
747.100                    16163.4000
747.600                    16255.3000
748.100                    16413.8000
748.600                    16172.7000
749.100                    16207.9000
749.600                    16083.6000
750.100                    16169.2000
750.600                    16045.6000
751.100                    15999.1000
751.600                    16078.6000
752.100                    16005.6000
752.600                    15852.1000
753.100                    15765.1000
753.600                    15788.5000
754.100                    15704.3000
754.600                    15703.4000
755.100                    15862.2000
755.600                    16448.5000
756.100                    16252.0000
756.600                    16777.0000
757.100                    17506.3000
757.600                    17832.6000
758.100                    17974.8000
758.600                    17586.7000
759.100                    16816.2000
759.600                    16257.4000
760.100                    15954.5000
760.600                    15546.4000
761.100                    15386.9000
761.600                    15413.1000
762.100                    15438.8000
762.600                    15432.7000
763.100                    15549.5000
763.600                    15608.8000
764.100                    15781.4000
764.600                    16441.9000
765.100                    17306.8000
765.600                    18133.0000
766.100                    18763.2000
766.600                    18718.1000
767.100                    18289.9000
767.600                    17267.3000
768.100                    16239.8000
768.600                    15818.0000
769.100                    15399.8000
769.600                    15077.5000
770.100                    15133.6000
770.600                    15245.7000
771.100                    15080.8000
771.600                    15297.0000
772.100                    15216.2000
772.600                    15168.8000
773.100                    15177.2000
773.600                    15297.1000
774.100                    15388.8000
774.600                    15652.5000
775.100                    15591.0000
775.600                    15525.0000
776.100                    15597.1000
776.600                    15738.4000
777.100                    15359.2000
777.600                    15324.2000
778.100                    15443.3000
778.600                    15355.5000
779.100                    15421.6000
779.600                    15479.8000
780.100                    15675.3000
780.600                    15479.4000
781.100                    15633.5000
781.600                    15558.2000
782.100                    15695.7000
782.600                    15681.4000
783.100                    15576.8000
783.600                    15325.4000
784.100                    15480.9000
784.600                    15573.7000
785.100                    15470.1000
785.600                    15224.4000
786.100                    15310.7000
786.600                    15228.3000
787.100                    15155.9000
787.600                    14947.6000
788.100                    14819.3000
788.600                    14542.3000
789.100                    14493.6000
789.600                    14262.3000
790.100                    14180.4000
790.600                    13973.2000
791.100                    13678.0000
791.600                    13459.9000
792.100                    12899.1000
792.600                    12726.8000
793.100                    12407.9000
793.600                    12184.6000
794.100                    11811.6000
794.600                    11525.8000
795.100                    11404.0000
795.600                    11032.5000
796.100                    10925.7000
796.600                    11053.6000
797.100                    10842.0000
797.600                    11201.5000
798.100                    12041.9000
798.600                    14038.9000
799.100                    17566.3000
799.600                    21930.1000
800.100                    26700.5000
800.600                    29058.0000
801.100                    27359.0000
801.600                    22618.4000
802.100                    16472.1000
802.600                    12071.8000
803.100                     9734.3000
803.600                     8679.6000
804.100                     8294.7000
804.600                     8314.2000
805.100                     9077.8000
805.600                    10305.8000
806.100                    13153.3000
806.600                    18562.8000
807.100                    25416.3000
807.600                    32741.9000
808.100                    37267.9000
808.600                    36532.3000
809.100                    30292.8000
809.600                    22072.7000
810.100                    15047.2000
810.600                    11009.5000
811.100                     9268.0000
811.600                     8267.4000
812.100                     7595.3000
812.600                     6915.8000
813.100                     6689.8000
813.600                     6564.1000
814.100                     6534.0000
814.600                     6499.9000
815.100                     6944.8000
815.600                     7334.1000
816.100                     7848.1000
816.600                     8325.9000
817.100                     8487.1000
817.600                     8598.6000
818.100                     8212.5000
818.600                     7997.6000
819.100                     7346.4000
819.600                     6818.7000
820.100                     6326.8000
820.600                     5933.8000
821.100                     5713.8000
821.600                     5610.5000
822.100                     5502.7000
822.600                     5494.9000
823.100                     5395.6000
823.600                     5464.2000
824.100                     5495.3000
824.600                     5418.4000
825.100                     5402.5000
825.600                     5489.5000
826.100                     5490.1000
826.600                     5469.2000
827.100                     5513.6000
827.600                     5406.9000
828.100                     5408.8000
828.600                     5329.8000
829.100                     5331.9000
829.600                     5423.8000
830.100                     5425.1000
830.600                     5385.4000
831.100                     5362.4000
831.600                     5352.0000
832.100                     5131.7000
832.600                     5179.5000
833.100                     5220.9000
833.600                     5220.4000
834.100                     5158.5000
834.600                     5087.8000
835.100                     5114.7000
835.600                     5109.6000
836.100                     5059.4000
836.600                     5105.8000
837.100                     5189.0000
837.600                     5047.3000
838.100                     5054.6000
838.600                     5066.9000
839.100                     5030.6000
839.600                     5082.2000
840.100                     4988.4000
840.600                     5009.0000
841.100                     5101.4000
841.600                     5165.6000
842.100                     5148.6000
842.600                     5008.8000
843.100                     5012.0000
843.600                     5095.7000
844.100                     5118.0000
844.600                     5076.4000
845.100                     5111.6000
845.600                     5016.9000
846.100                     4977.5000
846.600                     5058.5000
847.100                     5050.3000
847.600                     5011.1000
848.100                     5151.2000
848.600                     5245.3000
849.100                     5280.7000
849.600                     5074.4000
850.100                     5109.5000
850.600                     5155.1000
851.100                     5179.7000
851.600                     5115.8000
852.100                     5140.2000
852.600                     5250.6000
853.100                     5218.2000
853.600                     5133.6000
854.100                     5169.6000
854.600                     5036.3000
855.100                     5103.0000
855.600                     5073.3000
856.100                     4939.8000
856.600                     5073.1000
857.100                     5004.2000
857.600                     4951.4000
858.100                     5058.5000
858.600                     4935.4000
859.100                     4944.6000
859.600                     4835.9000
860.100                     4949.3000
860.600                     4873.9000
861.100                     4950.9000
861.600                     4933.7000
862.100                     4855.5000
862.600                     4846.4000
863.100                     4942.8000
863.600                     4918.3000
864.100                     4817.2000
864.600                     4829.0000
865.100                     4842.9000
865.600                     4885.9000
866.100                     4844.3000
866.600                     4874.9000
867.100                     4976.7000
867.600                     4838.6000
868.100                     4901.0000
868.600                     4842.0000
869.100                     4858.8000
869.600                     4909.1000
870.100                     4925.0000
870.600                     4863.5000
871.100                     4997.3000
871.600                     5039.8000
872.100                     4946.7000
872.600                     4902.6000
873.100                     4928.8000
873.600                     4966.0000
874.100                     4952.5000
874.600                     4885.9000
875.100                     4812.5000
875.600                     4748.3000
876.100                     4902.9000
876.600                     4884.6000
877.100                     4781.4000
877.600                     4914.3000
878.100                     4933.1000
878.600                     4909.4000
879.100                     4869.1000
879.600                     4965.0000
880.100                     4978.9000
880.600                     5037.2000
881.100                     4981.8000
881.600                     4866.2000
882.100                     4877.5000
882.600                     4904.0000
883.100                     4998.0000
883.600                     4869.9000
884.100                     4870.5000
884.600                     4944.6000
885.100                     4862.3000
885.600                     4921.0000
886.100                     4801.5000
886.600                     4823.3000
887.100                     4816.0000
887.600                     4818.9000
888.100                     4898.5000
888.600                     4890.2000
889.100                     4888.4000
889.600                     4893.1000
890.100                     4832.3000
890.600                     4829.5000
891.100                     5036.4000
891.600                     4916.7000
892.100                     4785.4000
892.600                     4912.9000
893.100                     4898.2000
893.600                     4826.3000
894.100                     4921.2000
894.600                     4903.8000
895.100                     4829.5000
895.600                     4954.4000
896.100                     4849.8000
896.600                     4891.9000
897.100                     4935.2000
897.600                     4934.3000
898.100                     4923.7000
898.600                     4901.8000
899.100                     4822.8000
899.600                     4920.4000
900.100                     4958.1000
900.600                     4988.6000
901.100                     4979.2000
901.600                     4934.4000
902.100                     4907.3000
902.600                     4979.1000
903.100                     5077.9000
903.600                     4933.9000
904.100                     5010.9000
904.600                     4960.1000
905.100                     4932.5000
905.600                     5026.0000
906.100                     4957.6000
906.600                     4919.1000
907.100                     5042.1000
907.600                     4986.3000
908.100                     4922.8000
908.600                     4855.4000
909.100                     4936.9000
909.600                     5006.2000
910.100                     5032.7000
910.600                     5023.2000
911.100                     4906.9000
911.600                     5028.3000
912.100                     5046.9000
912.600                     4906.5000
913.100                     5026.7000
913.600                     4944.0000
914.100                     5074.7000
914.600                     5139.1000
915.100                     5006.1000
915.600                     5068.2000
916.100                     5016.9000
916.600                     5162.9000
917.100                     5028.6000
917.600                     5117.2000
918.100                     5074.1000
918.600                     5022.8000
919.100                     4937.4000
919.600                     5003.8000
920.100                     5021.8000
920.600                     5177.3000
921.100                     5105.5000
921.600                     5029.7000
922.100                     5165.9000
922.600                     5079.0000
923.100                     5096.2000
923.600                     5175.9000
924.100                     5153.8000
924.600                     5133.9000
925.100                     5044.2000
925.600                     5195.8000
926.100                     5105.6000
926.600                     5035.0000
927.100                     5111.7000
927.600                     5086.5000
928.100                     5020.7000
928.600                     4985.1000
929.100                     5020.5000
929.600                     5024.0000
930.100                     5011.9000
930.600                     5009.1000
931.100                     5130.9000
931.600                     5108.3000
932.100                     5050.7000
932.600                     5134.5000
933.100                     5158.6000
933.600                     5060.3000
934.100                     5043.3000
934.600                     5168.1000
935.100                     5169.8000
935.600                     5131.9000
936.100                     5154.9000
936.600                     5143.0000
937.100                     5169.1000
937.600                     5213.8000
938.100                     5148.0000
938.600                     5185.1000
939.100                     5046.7000
939.600                     5083.9000
940.100                     5164.6000
940.600                     5186.6000
941.100                     5229.1000
941.600                     5205.2000
942.100                     5193.1000
942.600                     5134.3000
943.100                     5253.1000
943.600                     5305.5000
944.100                     5223.9000
944.600                     5249.3000
945.100                     5190.1000
945.600                     5230.3000
946.100                     5267.4000
946.600                     5137.8000
947.100                     5250.7000
947.600                     5235.9000
948.100                     5261.8000
948.600                     5360.4000
949.100                     5394.9000
949.600                     5440.8000
950.100                     5385.5000
950.600                     5230.6000
951.100                     5244.5000
951.600                     5200.1000
952.100                     5106.3000
952.600                     5107.0000
953.100                     4978.6000
953.600                     4987.3000
954.100                     5047.2000
954.600                     4991.2000
955.100                     4924.2000
955.600                     4894.3000
956.100                     4929.7000
956.600                     4881.8000
957.100                     4843.2000
957.600                     4803.0000
958.100                     4751.5000
958.600                     4734.4000
959.100                     4686.4000
959.600                     4825.1000
960.100                     4777.9000
960.600                     4658.0000
961.100                     4777.3000
961.600                     4830.9000
962.100                     4812.5000
962.600                     4948.0000
963.100                     5207.4000
963.600                     5372.9000
964.100                     5471.6000
964.600                     5485.7000
965.100                     5659.8000
965.600                     6292.7000
966.100                     7318.1000
966.600                     8768.3000
967.100                    10574.9000
967.600                    11373.8000
968.100                    10761.1000
968.600                     8736.3000
969.100                     6516.5000
969.600                     5197.6000
970.100                     4802.1000
970.600                     4633.3000
971.100                     4663.1000
971.600                     4646.0000
972.100                     4655.1000
972.600                     4590.4000
973.100                     4516.5000
973.600                     4520.8000
974.100                     4569.9000
974.600                     4687.4000
975.100                     4920.1000
975.600                     4990.5000
976.100                     4989.1000
976.600                     5133.9000
977.100                     4968.7000
977.600                     4964.5000
978.100                     4824.5000
978.600                     4845.0000
979.100                     4717.7000
979.600                     4600.8000
980.100                     4480.5000
980.600                     4377.7000
981.100                     4432.7000
981.600                     4444.8000
982.100                     4469.8000
982.600                     4476.2000
983.100                     4474.0000
983.600                     4466.3000
984.100                     4429.5000
984.600                     4465.9000
985.100                     4463.1000
985.600                     4486.0000
986.100                     4412.9000
986.600                     4542.5000
987.100                     4721.4000
987.600                     4818.4000
988.100                     4901.8000
988.600                     5041.5000
989.100                     4966.8000
989.600                     4906.5000
990.100                     4703.0000
990.600                     4546.7000
991.100                     4467.6000
991.600                     4428.8000
992.100                     4366.6000
992.600                     4231.7000
993.100                     4214.0000
993.600                     4252.7000
994.100                     4268.9000
994.600                     4301.5000
995.100                     4234.1000
995.600                     4226.1000
996.100                     4196.6000
996.600                     4193.1000
997.100                     4198.7000
997.600                     4200.7000
998.100                     4212.0000
998.600                     4168.1000
999.100                     4152.8000
999.600                     4205.0000
1000.100                    4246.8000
1000.600                    4218.8000
1001.100                    4113.9000
1001.600                    4184.6000
1002.100                    4174.3000
1002.600                    4161.0000
1003.100                    4132.3000
1003.600                    4112.5000
1004.100                    4201.9000
1004.600                    4297.4000
1005.100                    4183.0000
1005.600                    4178.1000
1006.100                    4170.6000
1006.600                    4166.2000
1007.100                    4233.8000
1007.600                    4139.0000
1008.100                    4150.1000
1008.600                    4109.3000
1009.100                    4223.9000
1009.600                    4291.1000
1010.100                    4240.9000
1010.600                    4210.0000
1011.100                    4270.0000
1011.600                    4282.8000
1012.100                    4196.4000
1012.600                    4280.7000
1013.100                    4292.3000
1013.600                    4255.9000
1014.100                    4240.1000
1014.600                    4212.4000
1015.100                    4141.9000
1015.600                    4184.8000
1016.100                    4255.7000
1016.600                    4256.8000
1017.100                    4165.8000
1017.600                    4224.6000
1018.100                    4262.1000
1018.600                    4250.5000
1019.100                    4169.7000
1019.600                    4173.0000
1020.100                    4253.4000
1020.600                    4276.2000
1021.100                    4191.1000
1021.600                    4109.8000
1022.100                    4139.4000
1022.600                    4080.2000
1023.100                    4143.8000
1023.600                    4224.9000
1024.100                    4218.8000
1024.600                    4173.3000
1025.100                    4196.0000
1025.600                    4203.1000
1026.100                    4221.3000
1026.600                    4194.2000
1027.100                    4244.3000
1027.600                    4077.3000
1028.100                    4127.7000
1028.600                    4122.8000
1029.100                    4103.1000
1029.600                    4144.0000
1030.100                    4180.0000
1030.600                    4178.8000
1031.100                    4310.3000
1031.600                    4098.1000
1032.100                    4143.3000
1032.600                    4167.9000
1033.100                    4319.2000
1033.600                    4313.0000
1034.100                    4324.0000
1034.600                    4308.3000
1035.100                    4352.2000
1035.600                    4223.2000
1036.100                    4129.1000
1036.600                    4172.4000
1037.100                    4135.4000
1037.600                    4162.8000
1038.100                    4156.5000
1038.600                    4168.7000
1039.100                    4132.4000
1039.600                    4157.8000
1040.100                    4184.4000
1040.600                    4350.7000
1041.100                    4360.6000
1041.600                    4314.4000
1042.100                    4324.9000
1042.600                    4180.1000
1043.100                    4151.5000
1043.600                    4158.5000
1044.100                    4142.3000
1044.600                    4102.0000
1045.100                    4228.1000
1045.600                    4142.6000
1046.100                    4058.8000
1046.600                    4094.5000
1047.100                    4107.2000
1047.600                    4151.5000
1048.100                    4018.8000
1048.600                    4110.7000
1049.100                    4061.2000
1049.600                    4088.8000
1050.100                    4073.8000
1050.600                    4095.4000
1051.100                    4145.3000
1051.600                    4063.8000
1052.100                    4200.2000
1052.600                    4141.5000
1053.100                    4184.9000
1053.600                    4159.3000
1054.100                    4143.0000
1054.600                    4162.1000
1055.100                    4092.6000
1055.600                    4052.2000
1056.100                    4050.9000
1056.600                    4071.7000
1057.100                    4054.7000
1057.600                    4125.1000
1058.100                    4049.3000
1058.600                    4121.3000
1059.100                    4012.9000
1059.600                    4163.3000
1060.100                    4221.4000
1060.600                    4082.8000
1061.100                    4211.4000
1061.600                    4100.7000
1062.100                    4014.8000
1062.600                    4076.0000
1063.100                    4130.7000
1063.600                    4167.5000
1064.100                    4083.5000
1064.600                    4111.8000
1065.100                    4120.0000
1065.600                    4174.2000
1066.100                    4167.8000
1066.600                    4096.7000
1067.100                    4060.2000
1067.600                    4156.3000
1068.100                    4105.5000
1068.600                    4197.0000
1069.100                    4155.2000
1069.600                    4169.2000
1070.100                    4175.0000
1070.600                    4087.2000
1071.100                    4005.1000
1071.600                    4138.1000
1072.100                    4107.6000
1072.600                    4087.5000
1073.100                    4131.3000
1073.600                    4133.6000
1074.100                    4039.3000
1074.600                    4083.9000
1075.100                    4168.1000
1075.600                    4169.0000
1076.100                    4033.9000
1076.600                    4054.9000
1077.100                    4200.1000
1077.600                    4213.6000
1078.100                    4185.0000
1078.600                    4223.5000
1079.100                    4121.4000
1079.600                    4063.2000
1080.100                    4092.8000
1080.600                    4177.7000
1081.100                    4110.3000
1081.600                    4171.9000
1082.100                    4224.1000
1082.600                    4181.7000
1083.100                    4109.5000
1083.600                    4195.4000
1084.100                    4183.0000
1084.600                    4112.1000
1085.100                    4100.8000
1085.600                    4111.5000
1086.100                    4214.4000
1086.600                    4194.9000
1087.100                    4160.1000
1087.600                    4069.2000
1088.100                    4089.6000
1088.600                    4108.9000
1089.100                    4055.2000
1089.600                    4186.2000
1090.100                    4041.8000
1090.600                    4044.7000
1091.100                    4168.5000
1091.600                    4157.2000
1092.100                    4214.2000
1092.600                    4128.5000
1093.100                    4087.7000
1093.600                    4135.9000
1094.100                    4207.7000
1094.600                    4173.2000
1095.100                    4111.0000
1095.600                    4120.3000
1096.100                    4087.7000
1096.600                    4185.1000
1097.100                    4234.2000
1097.600                    4211.6000
1098.100                    4177.8000
1098.600                    4230.4000
1099.100                    4230.0000
1099.600                    4172.2000
1100.100                    4148.0000
1100.600                    4065.6000
1101.100                    4044.8000
1101.600                    4072.1000
1102.100                    4124.5000
1102.600                    4103.4000
1103.100                    4109.6000
1103.600                    4138.0000
1104.100                    4228.8000
1104.600                    4180.0000
1105.100                    4143.6000
1105.600                    4056.5000
1106.100                    4134.7000
1106.600                    4146.5000
1107.100                    4157.3000
1107.600                    4170.3000
1108.100                    4146.3000
1108.600                    4202.5000
1109.100                    4186.9000
1109.600                    4204.5000
1110.100                    4207.5000
1110.600                    4157.5000
1111.100                    4229.8000
1111.600                    4249.4000
1112.100                    4128.0000
1112.600                    4157.4000
1113.100                    4182.9000
1113.600                    4170.6000
1114.100                    4121.0000
1114.600                    4175.9000
1115.100                    4146.7000
1115.600                    4047.6000
1116.100                    4207.7000
1116.600                    4075.4000
1117.100                    4137.2000
1117.600                    4065.0000
1118.100                    4024.6000
1118.600                    4131.3000
1119.100                    4106.6000
1119.600                    4025.0000
1120.100                    4107.5000
1120.600                    4066.6000
1121.100                    4062.0000
1121.600                    3995.1000
1122.100                    3947.8000
1122.600                    4098.9000
1123.100                    4101.3000
1123.600                    4004.6000
1124.100                    4006.0000
1124.600                    4048.0000
1125.100                    4132.7000
1125.600                    4183.6000
1126.100                    4126.8000
1126.600                    4196.0000
1127.100                    4158.0000
1127.600                    4237.6000
1128.100                    4299.2000
1128.600                    4435.4000
1129.100                    4479.0000
1129.600                    4507.6000
1130.100                    4459.5000
1130.600                    4384.2000
1131.100                    4302.9000
1131.600                    4257.0000
1132.100                    4201.9000
1132.600                    4160.0000
1133.100                    4071.2000
1133.600                    4038.9000
1134.100                    4009.5000
1134.600                    4034.4000
1135.100                    3995.1000
1135.600                    3984.2000
1136.100                    3992.0000
1136.600                    3987.6000
1137.100                    4099.7000
1137.600                    3994.7000
1138.100                    3985.2000
1138.600                    4053.8000
1139.100                    3994.3000
1139.600                    3897.3000
1140.100                    3883.9000
1140.600                    4016.1000
1141.100                    3995.1000
1141.600                    4025.9000
1142.100                    3909.0000
1142.600                    4003.7000
1143.100                    4091.4000
1143.600                    4032.0000
1144.100                    3914.4000
1144.600                    3972.7000
1145.100                    3982.5000
1145.600                    3957.9000
1146.100                    3893.1000
1146.600                    3983.2000
1147.100                    4014.1000
1147.600                    4011.4000
1148.100                    4040.1000
1148.600                    3947.6000
1149.100                    3976.7000
1149.600                    3988.9000
1150.100                    3894.4000
1150.600                    4033.2000
1151.100                    3977.1000
1151.600                    4097.9000
1152.100                    4015.2000
1152.600                    3990.5000
1153.100                    3969.1000
1153.600                    4023.4000
1154.100                    4015.5000
1154.600                    4017.9000
1155.100                    4065.4000
1155.600                    3935.8000
1156.100                    3913.4000
1156.600                    3915.4000
1157.100                    3845.8000
1157.600                    3937.7000
1158.100                    3944.7000
1158.600                    3844.7000
1159.100                    4002.8000
1159.600                    3909.7000
1160.100                    3923.5000
1160.600                    3948.6000
1161.100                    3971.0000
1161.600                    3900.0000
1162.100                    3964.4000
1162.600                    3934.7000
1163.100                    4000.7000
1163.600                    3890.4000
1164.100                    3921.3000
1164.600                    3937.8000
1165.100                    4058.6000
1165.600                    3989.6000
1166.100                    3973.1000
1166.600                    4060.6000
1167.100                    3981.5000
1167.600                    3942.1000
1168.100                    4059.5000
1168.600                    3925.7000
1169.100                    3971.8000
1169.600                    4030.3000
1170.100                    4084.7000
1170.600                    4069.8000
1171.100                    4135.4000
1171.600                    4037.3000
1172.100                    4069.7000
1172.600                    4071.0000
1173.100                    4027.2000
1173.600                    4075.0000
1174.100                    4071.3000
1174.600                    4048.6000
1175.100                    3974.9000
1175.600                    4061.1000
1176.100                    4045.0000
1176.600                    3874.7000
1177.100                    3919.4000
1177.600                    3837.9000
1178.100                    3770.3000
1178.600                    3729.3000
1179.100                    3660.4000
1179.600                    3615.2000
1180.100                    3500.8000
1180.600                    3526.5000
1181.100                    3582.0000
1181.600                    3546.2000
1182.100                    3511.1000
1182.600                    3488.3000
1183.100                    3441.1000
1183.600                    3350.8000
1184.100                    3229.1000
1184.600                    3308.4000
1185.100                    3282.4000
1185.600                    3143.6000
1186.100                    3097.1000
1186.600                    3167.9000
1187.100                    3146.7000
1187.600                    3268.0000
1188.100                    3199.4000
1188.600                    3258.0000
1189.100                    3214.4000
1189.600                    3183.2000
1190.100                    3161.4000
1190.600                    3136.1000
1191.100                    3088.1000
1191.600                    3021.2000
1192.100                    3034.7000
1192.600                    3024.5000
1193.100                    2945.2000
1193.600                    2873.5000
1194.100                    3015.4000
1194.600                    3103.2000
1195.100                    3045.4000
1195.600                    3041.9000
1196.100                    3006.0000
1196.600                    3049.1000
1197.100                    3023.8000
1197.600                    2976.5000
1198.100                    2974.6000
1198.600                    2981.5000
1199.100                    3106.1000
1199.600                    3047.9000
1200.100                    3046.4000
1200.600                    3033.4000
1201.100                    3061.9000
1201.600                    3032.5000
1202.100                    3008.0000
1202.600                    2985.1000
1203.100                    3075.4000
1203.600                    3009.6000
1204.100                    2961.4000
1204.600                    3032.8000
1205.100                    3062.9000
1205.600                    3105.0000
1206.100                    3014.6000
1206.600                    3062.4000
1207.100                    3048.8000
1207.600                    3092.9000
1208.100                    3138.4000
1208.600                    3111.0000
1209.100                    3145.3000
1209.600                    3080.9000
1210.100                    3089.5000
1210.600                    3142.0000
1211.100                    3075.5000
1211.600                    3080.5000
1212.100                    3083.3000
1212.600                    3048.5000
1213.100                    3083.4000
1213.600                    3150.1000
1214.100                    3103.5000
1214.600                    3098.3000
1215.100                    3127.0000
1215.600                    3050.0000
1216.100                    3082.1000
1216.600                    3070.5000
1217.100                    3042.4000
1217.600                    3011.7000
1218.100                    2939.6000
1218.600                    2941.0000
1219.100                    2876.2000
1219.600                    2852.1000
1220.100                    2906.5000
1220.600                    2890.6000
1221.100                    2839.3000
1221.600                    2809.7000
1222.100                    2821.3000
1222.600                    2784.6000
1223.100                    2786.3000
1223.600                    2706.7000
1224.100                    2750.5000
1224.600                    2741.9000
1225.100                    2865.0000
1225.600                    3035.9000
1226.100                    3223.5000
1226.600                    3266.7000
1227.100                    3044.5000
1227.600                    2913.2000
1228.100                    2770.5000
1228.600                    2648.3000
1229.100                    2600.7000
1229.600                    2541.5000
1230.100                    2496.1000
1230.600                    2599.6000
1231.100                    2542.9000
1231.600                    2632.0000
1232.100                    2908.7000
1232.600                    3344.0000
1233.100                    4207.2000
1233.600                    5377.8000
1234.100                    6639.1000
1234.600                    7429.7000
1235.100                    7588.0000
1235.600                    6922.7000
1236.100                    5520.5000
1236.600                    4086.6000
1237.100                    3085.1000
1237.600                    2559.3000
1238.100                    2269.2000
1238.600                    2136.5000
1239.100                    2012.2000
1239.600                    1979.1000
1240.100                    1986.2000
1240.600                    2045.5000
1241.100                    1988.8000
1241.600                    2028.9000
1242.100                    2130.5000
1242.600                    2367.2000
1243.100                    2429.0000
1243.600                    2534.3000
1244.100                    2453.0000
1244.600                    2488.9000
1245.100                    2401.2000
1245.600                    2367.4000
1246.100                    2231.5000
1246.600                    2094.5000
1247.100                    2080.5000
1247.600                    2028.1000
1248.100                    2004.3000
1248.600                    1979.6000
1249.100                    1946.9000
1249.600                    1880.5000
1250.100                    1847.8000
1250.600                    1754.6000
1251.100                    1732.9000
1251.600                    1710.5000
1252.100                    1724.6000
1252.600                    1678.8000
1253.100                    1697.7000
1253.600                    1687.6000
1254.100                    1705.4000
1254.600                    1698.7000
1255.100                    1699.7000
1255.600                    1721.5000
1256.100                    1662.4000
1256.600                    1654.1000
1257.100                    1644.5000
1257.600                    1664.2000
1258.100                    1663.3000
1258.600                    1700.6000
1259.100                    1696.2000
1259.600                    1518.5000
