# Transition                      Sn 3d
# Notes                           
# Creation Comment                
# Energy Mode                     KE
# Start Energy in eV              749.6
# End Energy in eV                779.6
# Energy Step in eV               0.1
# Number Of Sweeps                15
# Dwell Time per Sweep in s       0.3
# Analyser Mode                   CAE
# Pass Energy in eV/Retard Ratio  25
# Magnification                   high
# Divide Voltages By 10           off
# Excitation Source               Mg Ka 1253.6 eV normal
# Excitation Energy in eV         1253.6
# Analyser Workfunction in eV     4.5
# Entrance Slit                   6 x 12 mm
# Exit Slit                       5 x 11 mm
# 
# 
# Kinetic Energy in eV         Counts
# --------------------         ------
749.600                    90187.7500
749.700                    89609.0000
749.800                    89469.2500
749.900                    89622.0000
750.000                    89821.0000
750.100                    90166.0000
750.200                    90270.5000
750.300                    89687.0000
750.400                    89625.7500
750.500                    89536.7500
750.600                    89985.2500
750.700                    89468.7500
750.800                    89423.5000
750.900                    89581.2500
751.000                    90214.5000
751.100                    90111.0000
751.200                    90002.0000
751.300                    89697.0000
751.400                    89311.0000
751.500                    89529.5000
751.600                    89066.7500
751.700                    89363.0000
751.800                    89510.7500
751.900                    89400.5000
752.000                    89910.5000
752.100                    89286.7500
752.200                    89206.0000
752.300                    88845.5000
752.400                    89544.2500
752.500                    89373.7500
752.600                    88958.7500
752.700                    89228.7500
752.800                    89434.2500
752.900                    89029.0000
753.000                    89502.7500
753.100                    88826.0000
753.200                    88671.2500
753.300                    89215.0000
753.400                    88783.5000
753.500                    88760.7500
753.600                    89242.2500
753.700                    88914.5000
753.800                    89102.2500
753.900                    88701.0000
754.000                    88755.2500
754.100                    88882.2500
754.200                    88730.5000
754.300                    88533.0000
754.400                    89036.5000
754.500                    88319.5000
754.600                    88604.5000
754.700                    88222.0000
754.800                    88973.5000
754.900                    88666.5000
755.000                    88037.7500
755.100                    88668.7500
755.200                    88903.2500
755.300                    88554.7500
755.400                    88950.2500
755.500                    88269.7500
755.600                    88862.7500
755.700                    88950.0000
755.800                    88954.2500
755.900                    88467.7500
756.000                    89183.5000
756.100                    89731.5000
756.200                    89627.0000
756.300                    89649.2500
756.400                    90053.0000
756.500                    90338.7500
756.600                    90997.2500
756.700                    91591.7500
756.800                    92594.7500
756.900                    93279.2500
757.000                    93769.0000
757.100                    95514.0000
757.200                    96609.5000
757.300                    98042.7500
757.400                    98776.0000
757.500                   100515.7500
757.600                   102004.0000
757.700                   104013.2500
757.800                   105079.2500
757.900                   106229.0000
758.000                   107426.7500
758.100                   108436.2500
758.200                   109549.2500
758.300                   109992.0000
758.400                   109841.0000
758.500                   109361.2500
758.600                   108799.2500
758.700                   108262.2500
758.800                   106890.2500
758.900                   105728.5000
759.000                   104809.2500
759.100                   102892.7500
759.200                   100585.5000
759.300                    99003.7500
759.400                    97523.2500
759.500                    95510.5000
759.600                    94332.5000
759.700                    93143.5000
759.800                    91884.7500
759.900                    90664.7500
760.000                    89897.2500
760.100                    89509.7500
760.200                    89142.2500
760.300                    88609.7500
760.400                    88272.0000
760.500                    87920.2500
760.600                    87691.5000
760.700                    87175.0000
760.800                    87542.5000
760.900                    87202.0000
761.000                    86858.2500
761.100                    87158.0000
761.200                    86868.0000
761.300                    86656.2500
761.400                    86700.5000
761.500                    86690.0000
761.600                    87080.7500
761.700                    86898.5000
761.800                    86966.0000
761.900                    86547.7500
762.000                    86418.5000
762.100                    86033.2500
762.200                    86325.2500
762.300                    86317.7500
762.400                    86262.5000
762.500                    86901.0000
762.600                    86549.7500
762.700                    86319.7500
762.800                    85902.5000
762.900                    85958.0000
763.000                    86635.5000
763.100                    86672.2500
763.200                    86626.5000
763.300                    86816.7500
763.400                    86732.2500
763.500                    86778.7500
763.600                    87055.5000
763.700                    86927.2500
763.800                    87281.0000
763.900                    87301.2500
764.000                    87374.2500
764.100                    87527.7500
764.200                    87514.2500
764.300                    88097.2500
764.400                    88579.7500
764.500                    88892.0000
764.600                    88787.5000
764.700                    88736.0000
764.800                    90104.5000
764.900                    90330.0000
765.000                    91188.7500
765.100                    91766.0000
765.200                    93155.0000
765.300                    94466.0000
765.400                    96332.7500
765.500                    97683.2500
765.600                    99518.5000
765.700                   100974.5000
765.800                   103095.5000
765.900                   105834.2500
766.000                   108165.7500
766.100                   109677.7500
766.200                   112280.0000
766.300                   114543.2500
766.400                   116789.5000
766.500                   118283.7500
766.600                   118974.0000
766.700                   120507.2500
766.800                   121523.7500
766.900                   121146.0000
767.000                   120241.7500
767.100                   119689.7500
767.200                   118189.2500
767.300                   116219.7500
767.400                   113574.2500
767.500                   111955.7500
767.600                   109388.0000
767.700                   106038.5000
767.800                   103400.5000
767.900                   100975.7500
768.000                    99060.5000
768.100                    97191.0000
768.200                    95545.5000
768.300                    94159.0000
768.400                    92618.2500
768.500                    91764.7500
768.600                    90643.2500
768.700                    90199.7500
768.800                    89683.2500
768.900                    89325.7500
769.000                    88790.5000
769.100                    88136.2500
769.200                    88431.5000
769.300                    88498.2500
769.400                    87869.2500
769.500                    87699.2500
769.600                    87752.0000
769.700                    87352.2500
769.800                    87209.7500
769.900                    86901.2500
770.000                    86909.2500
770.100                    86965.0000
770.200                    86822.0000
770.300                    86279.5000
770.400                    86492.0000
770.500                    86056.7500
770.600                    85945.7500
770.700                    86221.5000
770.800                    86723.7500
770.900                    86388.7500
771.000                    86359.7500
771.100                    86112.7500
771.200                    86500.2500
771.300                    86446.7500
771.400                    86231.2500
771.500                    85939.0000
771.600                    86084.2500
771.700                    86372.5000
771.800                    86317.5000
771.900                    86153.7500
772.000                    86028.0000
772.100                    86108.5000
772.200                    86170.0000
772.300                    85952.0000
772.400                    85733.7500
772.500                    86136.5000
772.600                    86006.7500
772.700                    85700.2500
772.800                    86306.2500
772.900                    85887.2500
773.000                    86147.0000
773.100                    86431.5000
773.200                    86139.0000
773.300                    86260.2500
773.400                    86182.5000
773.500                    86979.7500
773.600                    86812.0000
773.700                    86493.0000
773.800                    86395.5000
773.900                    86674.5000
774.000                    86621.7500
774.100                    86657.2500
774.200                    87272.0000
774.300                    87874.0000
774.400                    88107.5000
774.500                    88029.0000
774.600                    87921.7500
774.700                    88393.2500
774.800                    88472.5000
774.900                    88193.5000
775.000                    88660.7500
775.100                    88976.2500
775.200                    89392.0000
775.300                    89499.7500
775.400                    89216.2500
775.500                    89538.2500
775.600                    89362.7500
775.700                    88853.2500
775.800                    89189.2500
775.900                    89288.7500
776.000                    89402.5000
776.100                    89610.7500
776.200                    88932.7500
776.300                    89436.2500
776.400                    89398.2500
776.500                    89866.2500
776.600                    89403.5000
776.700                    89561.7500
776.800                    89459.2500
776.900                    89042.0000
777.000                    89362.7500
777.100                    89382.2500
777.200                    89537.0000
777.300                    89934.7500
777.400                    89549.2500
777.500                    89640.7500
777.600                    89413.2500
777.700                    89692.5000
777.800                    89163.0000
777.900                    88964.7500
778.000                    88769.7500
778.100                    88810.2500
778.200                    88910.5000
778.300                    88940.2500
778.400                    88765.7500
778.500                    88622.5000
778.600                    88660.2500
778.700                    88209.7500
778.800                    88201.5000
778.900                    88794.7500
779.000                    88398.7500
779.100                    88446.0000
779.200                    89008.2500
779.300                    88574.5000
779.400                    88537.5000
779.500                    88902.2500
779.600                    88794.2500
