# Transition                      wide 
# Notes                           
# Creation Comment                
# Energy Mode                     KE
# Start Energy in eV              150
# End Energy in eV                1260
# Energy Step in eV               0.5
# Number Of Sweeps                1
# Dwell Time per Sweep in s       0.2
# Analyser Mode                   CAE
# Pass Energy in eV/Retard Ratio  50
# Magnification                   high
# Divide Voltages By 10           off
# Excitation Source               Mg Ka 1253.6 eV normal
# Excitation Energy in eV         1253.6
# Analyser Workfunction in eV     4.5
# Entrance Slit                   6 x 12 mm
# Exit Slit                       5 x 11 mm
# 
# 
# Kinetic Energy in eV         Counts
# --------------------         ------
150.000                    56133.5000
150.500                    55808.5000
151.000                    55897.4000
151.500                    56012.7000
152.000                    55685.7000
152.500                    56053.1000
153.000                    55940.2000
153.500                    55838.3000
154.000                    55694.9000
154.500                    55852.8000
155.000                    55578.2000
155.500                    55381.9000
156.000                    55228.4000
156.500                    55245.7000
157.000                    55118.7000
157.500                    55005.3000
158.000                    54734.1000
158.500                    55061.9000
159.000                    54956.7000
159.500                    55075.5000
160.000                    55297.7000
160.500                    55034.4000
161.000                    55051.1000
161.500                    54895.2000
162.000                    55022.1000
162.500                    54465.7000
163.000                    54689.9000
163.500                    54562.3000
164.000                    54456.9000
164.500                    54714.6000
165.000                    54651.6000
165.500                    54380.8000
166.000                    54316.3000
166.500                    54516.0000
167.000                    54066.6000
167.500                    53823.2000
168.000                    54085.5000
168.500                    53972.3000
169.000                    54030.2000
169.500                    53924.6000
170.000                    53768.7000
170.500                    53945.9000
171.000                    54006.0000
171.500                    53723.8000
172.000                    53559.8000
172.500                    53542.4000
173.000                    53122.5000
173.500                    53021.5000
174.000                    53599.4000
174.500                    53015.0000
175.000                    53303.6000
175.500                    53282.3000
176.000                    53164.5000
176.500                    53021.9000
177.000                    53250.3000
177.500                    53475.1000
178.000                    53419.2000
178.500                    53321.8000
179.000                    53017.5000
179.500                    53075.9000
180.000                    53001.5000
180.500                    53103.9000
181.000                    52541.8000
181.500                    52718.3000
182.000                    52804.1000
182.500                    52837.0000
183.000                    52580.0000
183.500                    52701.9000
184.000                    52451.9000
184.500                    52446.9000
185.000                    52138.9000
185.500                    52644.5000
186.000                    52177.1000
186.500                    52488.1000
187.000                    52434.6000
187.500                    52271.4000
188.000                    52296.2000
188.500                    52014.3000
189.000                    52123.5000
189.500                    52302.3000
190.000                    52831.0000
190.500                    52385.8000
191.000                    52358.0000
191.500                    51849.2000
192.000                    51926.3000
192.500                    52188.4000
193.000                    52037.8000
193.500                    51818.0000
194.000                    51518.7000
194.500                    51316.6000
195.000                    51522.1000
195.500                    51533.8000
196.000                    51570.8000
196.500                    51347.3000
197.000                    51377.5000
197.500                    51188.5000
198.000                    51315.7000
198.500                    51696.6000
199.000                    51457.3000
199.500                    51306.0000
200.000                    50837.6000
200.500                    50908.2000
201.000                    51268.1000
201.500                    50882.4000
202.000                    50946.5000
202.500                    50581.2000
203.000                    50742.7000
203.500                    50538.0000
204.000                    50864.2000
204.500                    50962.3000
205.000                    50834.0000
205.500                    50841.4000
206.000                    50986.2000
206.500                    50602.6000
207.000                    50597.1000
207.500                    50505.8000
208.000                    50647.6000
208.500                    50523.4000
209.000                    50352.0000
209.500                    50508.1000
210.000                    50479.8000
210.500                    50419.5000
211.000                    50750.5000
211.500                    50248.3000
212.000                    50372.9000
212.500                    50360.8000
213.000                    50326.0000
213.500                    50143.2000
214.000                    50225.0000
214.500                    50000.6000
215.000                    50003.4000
215.500                    50132.6000
216.000                    50040.8000
216.500                    50022.4000
217.000                    49923.0000
217.500                    49610.5000
218.000                    49861.8000
218.500                    49879.8000
219.000                    49901.9000
219.500                    49907.1000
220.000                    50082.2000
220.500                    49788.7000
221.000                    49816.9000
221.500                    49661.1000
222.000                    49865.0000
222.500                    50216.9000
223.000                    49575.8000
223.500                    49449.4000
224.000                    49734.5000
224.500                    49649.6000
225.000                    49686.1000
225.500                    49416.0000
226.000                    49659.9000
226.500                    49380.7000
227.000                    49631.1000
227.500                    49286.4000
228.000                    49037.2000
228.500                    49219.8000
229.000                    49635.0000
229.500                    49163.3000
230.000                    49120.5000
230.500                    48982.6000
231.000                    48855.8000
231.500                    49116.3000
232.000                    49149.7000
232.500                    48741.9000
233.000                    48729.4000
233.500                    48832.0000
234.000                    49113.7000
234.500                    49408.5000
235.000                    49086.4000
235.500                    48891.9000
236.000                    49175.6000
236.500                    49115.8000
237.000                    49348.0000
237.500                    49205.3000
238.000                    49629.2000
238.500                    49734.4000
239.000                    49706.7000
239.500                    50207.4000
240.000                    50200.3000
240.500                    49837.2000
241.000                    49645.1000
241.500                    49319.6000
242.000                    48929.5000
242.500                    48967.9000
243.000                    49025.4000
243.500                    48734.5000
244.000                    48625.1000
244.500                    48357.4000
245.000                    48520.5000
245.500                    48765.7000
246.000                    48947.2000
246.500                    48805.2000
247.000                    48545.6000
247.500                    48503.7000
248.000                    48673.9000
248.500                    48211.7000
249.000                    48480.6000
249.500                    48243.4000
250.000                    48464.9000
250.500                    48169.6000
251.000                    48474.0000
251.500                    48220.9000
252.000                    48364.5000
252.500                    48497.5000
253.000                    48915.9000
253.500                    48736.5000
254.000                    48723.9000
254.500                    48738.7000
255.000                    48976.8000
255.500                    48993.6000
256.000                    49392.7000
256.500                    49094.7000
257.000                    48880.8000
257.500                    49119.2000
258.000                    49390.3000
258.500                    48902.3000
259.000                    48924.7000
259.500                    48557.8000
260.000                    48756.2000
260.500                    48987.8000
261.000                    48890.1000
261.500                    48692.1000
262.000                    48748.5000
262.500                    48636.3000
263.000                    48611.2000
263.500                    48258.9000
264.000                    48207.1000
264.500                    48018.8000
265.000                    47494.4000
265.500                    47635.4000
266.000                    47743.5000
266.500                    47438.9000
267.000                    47159.4000
267.500                    46639.1000
268.000                    46867.0000
268.500                    46747.1000
269.000                    46390.2000
269.500                    46505.2000
270.000                    46298.3000
270.500                    45866.3000
271.000                    45795.0000
271.500                    45593.4000
272.000                    45514.3000
272.500                    45317.8000
273.000                    45048.2000
273.500                    45119.1000
274.000                    44995.7000
274.500                    45034.6000
275.000                    44497.9000
275.500                    44822.4000
276.000                    44673.4000
276.500                    44738.9000
277.000                    44968.6000
277.500                    44394.7000
278.000                    44440.3000
278.500                    44513.3000
279.000                    44241.2000
279.500                    44147.4000
280.000                    44269.6000
280.500                    44199.1000
281.000                    44113.3000
281.500                    44264.9000
282.000                    44430.1000
282.500                    44174.1000
283.000                    44103.0000
283.500                    43937.9000
284.000                    43825.1000
284.500                    44043.3000
285.000                    44002.2000
285.500                    44103.0000
286.000                    43826.0000
286.500                    43777.1000
287.000                    43975.2000
287.500                    44026.3000
288.000                    43569.7000
288.500                    43446.1000
289.000                    43735.8000
289.500                    43631.3000
290.000                    43932.5000
290.500                    44081.1000
291.000                    43837.6000
291.500                    43954.4000
292.000                    43972.0000
292.500                    43904.9000
293.000                    43840.0000
293.500                    43889.3000
294.000                    43780.8000
294.500                    43563.7000
295.000                    43726.8000
295.500                    43668.9000
296.000                    43790.0000
296.500                    43514.3000
297.000                    43684.7000
297.500                    43059.7000
298.000                    43144.4000
298.500                    43279.5000
299.000                    43284.9000
299.500                    43238.2000
300.000                    42781.6000
300.500                    42517.0000
301.000                    42608.0000
301.500                    42655.7000
302.000                    42962.7000
302.500                    42610.5000
303.000                    42416.8000
303.500                    42023.5000
304.000                    42162.4000
304.500                    41926.1000
305.000                    41706.3000
305.500                    41961.6000
306.000                    41746.2000
306.500                    42037.6000
307.000                    42167.8000
307.500                    41933.2000
308.000                    41980.2000
308.500                    41534.8000
309.000                    41904.1000
309.500                    42222.3000
310.000                    41921.1000
310.500                    41506.2000
311.000                    41759.7000
311.500                    41720.4000
312.000                    42027.7000
312.500                    41812.0000
313.000                    41491.8000
313.500                    41511.1000
314.000                    41306.1000
314.500                    41717.0000
315.000                    41885.5000
315.500                    41959.4000
316.000                    41431.0000
316.500                    41152.3000
317.000                    41249.5000
317.500                    41282.1000
318.000                    41235.4000
318.500                    41256.6000
319.000                    41069.9000
319.500                    41179.3000
320.000                    41314.0000
320.500                    41321.5000
321.000                    41170.4000
321.500                    41101.5000
322.000                    40878.9000
322.500                    40986.2000
323.000                    40766.0000
323.500                    41170.8000
324.000                    41038.4000
324.500                    40645.4000
325.000                    40651.9000
325.500                    40741.2000
326.000                    40729.8000
326.500                    40553.8000
327.000                    40751.9000
327.500                    41155.4000
328.000                    40680.2000
328.500                    40742.3000
329.000                    40409.7000
329.500                    40462.4000
330.000                    40364.1000
330.500                    40690.5000
331.000                    40587.6000
331.500                    40373.8000
332.000                    40040.2000
332.500                    40408.5000
333.000                    40308.3000
333.500                    40094.1000
334.000                    39778.3000
334.500                    40233.0000
335.000                    40105.9000
335.500                    40136.2000
336.000                    40064.4000
336.500                    39690.5000
337.000                    39519.5000
337.500                    40028.7000
338.000                    40018.7000
338.500                    39984.1000
339.000                    39450.3000
339.500                    39638.5000
340.000                    39536.7000
340.500                    39288.8000
341.000                    39178.1000
341.500                    39321.8000
342.000                    39249.4000
342.500                    39117.6000
343.000                    38838.8000
343.500                    38741.4000
344.000                    38519.9000
344.500                    38366.7000
345.000                    38169.8000
345.500                    38244.4000
346.000                    38052.7000
346.500                    38343.7000
347.000                    37992.3000
347.500                    37744.5000
348.000                    37766.1000
348.500                    37511.2000
349.000                    37675.6000
349.500                    37163.6000
350.000                    36928.3000
350.500                    36944.8000
351.000                    36790.1000
351.500                    36728.0000
352.000                    37064.4000
352.500                    36913.9000
353.000                    36675.5000
353.500                    36573.5000
354.000                    36588.7000
354.500                    36423.3000
355.000                    36320.7000
355.500                    36502.3000
356.000                    36385.7000
356.500                    36384.2000
357.000                    36219.9000
357.500                    36470.2000
358.000                    36115.5000
358.500                    36056.1000
359.000                    35848.2000
359.500                    35892.4000
360.000                    36024.9000
360.500                    35842.2000
361.000                    36012.7000
361.500                    35875.9000
362.000                    35723.5000
362.500                    35927.6000
363.000                    35781.6000
363.500                    35654.2000
364.000                    35807.9000
364.500                    35711.9000
365.000                    35578.2000
365.500                    35680.5000
366.000                    35798.9000
366.500                    35612.0000
367.000                    35764.3000
367.500                    35981.0000
368.000                    35952.5000
368.500                    35888.0000
369.000                    36116.5000
369.500                    35705.6000
370.000                    35531.8000
370.500                    35452.2000
371.000                    35533.9000
371.500                    35600.2000
372.000                    35755.1000
372.500                    35846.4000
373.000                    36015.4000
373.500                    35607.4000
374.000                    35804.2000
374.500                    35807.0000
375.000                    35554.7000
375.500                    35733.5000
376.000                    35380.1000
376.500                    35507.4000
377.000                    35512.6000
377.500                    35580.9000
378.000                    35538.2000
378.500                    35862.6000
379.000                    35637.2000
379.500                    35737.9000
380.000                    35776.1000
380.500                    35478.8000
381.000                    35644.9000
381.500                    35556.8000
382.000                    35550.4000
382.500                    35540.3000
383.000                    35325.3000
383.500                    35134.6000
384.000                    34833.7000
384.500                    35035.0000
385.000                    35152.1000
385.500                    34955.4000
386.000                    34635.8000
386.500                    34565.9000
387.000                    34368.2000
387.500                    34120.0000
388.000                    34203.9000
388.500                    33970.7000
389.000                    33990.7000
389.500                    33799.7000
390.000                    33611.5000
390.500                    33681.5000
391.000                    33562.9000
391.500                    33165.1000
392.000                    33188.7000
392.500                    33437.7000
393.000                    33581.0000
393.500                    33239.9000
394.000                    33528.4000
394.500                    33923.1000
395.000                    33884.3000
395.500                    33993.5000
396.000                    34688.7000
396.500                    35466.6000
397.000                    36383.3000
397.500                    37245.9000
398.000                    38279.0000
398.500                    38935.4000
399.000                    39517.7000
399.500                    39824.5000
400.000                    39924.2000
400.500                    38687.0000
401.000                    38662.8000
401.500                    37571.7000
402.000                    36709.8000
402.500                    35535.0000
403.000                    34886.8000
403.500                    34585.7000
404.000                    34467.1000
404.500                    34684.3000
405.000                    34909.1000
405.500                    34830.8000
406.000                    35333.7000
406.500                    35344.1000
407.000                    34314.3000
407.500                    33607.5000
408.000                    32870.9000
408.500                    32184.5000
409.000                    31284.0000
409.500                    30556.3000
410.000                    29857.0000
410.500                    29453.4000
411.000                    29053.2000
411.500                    28645.0000
412.000                    27994.8000
412.500                    27818.7000
413.000                    27565.2000
413.500                    27432.7000
414.000                    27752.8000
414.500                    27731.5000
415.000                    27475.1000
415.500                    27629.1000
416.000                    27429.1000
416.500                    27202.4000
417.000                    27495.3000
417.500                    27522.8000
418.000                    27379.4000
418.500                    27703.5000
419.000                    27850.0000
419.500                    27435.6000
420.000                    27341.2000
420.500                    27458.8000
421.000                    27571.8000
421.500                    27639.1000
422.000                    27863.0000
422.500                    27790.0000
423.000                    28246.2000
423.500                    28117.6000
424.000                    28320.4000
424.500                    28247.1000
425.000                    28321.7000
425.500                    27996.9000
426.000                    28223.2000
426.500                    27964.3000
427.000                    27977.9000
427.500                    27520.5000
428.000                    27297.9000
428.500                    27228.8000
429.000                    26979.7000
429.500                    26688.9000
430.000                    26956.7000
430.500                    26700.1000
431.000                    26759.4000
431.500                    27010.8000
432.000                    27075.4000
432.500                    26815.6000
433.000                    26541.5000
433.500                    26432.0000
434.000                    26255.5000
434.500                    26367.8000
435.000                    25973.1000
435.500                    25933.1000
436.000                    25544.9000
436.500                    25692.1000
437.000                    25665.2000
437.500                    25661.6000
438.000                    25461.2000
438.500                    25446.3000
439.000                    25472.3000
439.500                    25509.0000
440.000                    25517.6000
440.500                    25546.8000
441.000                    25613.6000
441.500                    25395.1000
442.000                    25264.7000
442.500                    25373.1000
443.000                    25474.1000
443.500                    25627.7000
444.000                    25485.2000
444.500                    25578.4000
445.000                    25609.2000
445.500                    25468.4000
446.000                    25376.9000
446.500                    25332.7000
447.000                    25312.7000
447.500                    25607.1000
448.000                    25594.3000
448.500                    25421.9000
449.000                    25725.2000
449.500                    25505.8000
450.000                    25432.7000
450.500                    25422.8000
451.000                    25437.7000
451.500                    25427.7000
452.000                    25604.7000
452.500                    25373.7000
453.000                    25481.1000
453.500                    25312.0000
454.000                    25467.8000
454.500                    25475.6000
455.000                    25716.1000
455.500                    25648.8000
456.000                    25494.8000
456.500                    25172.5000
457.000                    25162.4000
457.500                    25015.5000
458.000                    25360.1000
458.500                    25675.0000
459.000                    25671.8000
459.500                    25554.8000
460.000                    25627.2000
460.500                    25353.4000
461.000                    25414.4000
461.500                    25511.9000
462.000                    25222.6000
462.500                    25338.0000
463.000                    25221.2000
463.500                    25334.2000
464.000                    25324.7000
464.500                    25387.4000
465.000                    25249.1000
465.500                    25356.5000
466.000                    25597.8000
466.500                    25421.8000
467.000                    25307.5000
467.500                    25407.6000
468.000                    25436.9000
468.500                    25313.8000
469.000                    25242.1000
469.500                    25202.0000
470.000                    25433.0000
470.500                    25280.1000
471.000                    25381.2000
471.500                    25506.8000
472.000                    25669.9000
472.500                    25648.5000
473.000                    25303.7000
473.500                    25424.7000
474.000                    25550.7000
474.500                    25371.5000
475.000                    25553.9000
475.500                    25261.4000
476.000                    25444.7000
476.500                    25333.6000
477.000                    25337.7000
477.500                    25208.1000
478.000                    25151.4000
478.500                    25179.9000
479.000                    25153.4000
479.500                    25173.6000
480.000                    25224.8000
480.500                    25115.8000
481.000                    25020.4000
481.500                    25104.8000
482.000                    25241.8000
482.500                    25294.0000
483.000                    25166.2000
483.500                    25239.1000
484.000                    25228.8000
484.500                    25388.2000
485.000                    25415.4000
485.500                    25444.3000
486.000                    25445.8000
486.500                    25332.1000
487.000                    25643.5000
487.500                    25524.7000
488.000                    25321.9000
488.500                    25563.4000
489.000                    25618.7000
489.500                    25515.4000
490.000                    25702.2000
490.500                    25640.2000
491.000                    25575.3000
491.500                    25423.2000
492.000                    25551.5000
492.500                    25707.1000
493.000                    25403.2000
493.500                    25175.1000
494.000                    25313.5000
494.500                    25052.4000
495.000                    25102.8000
495.500                    25189.7000
496.000                    24788.0000
496.500                    24910.9000
497.000                    24685.4000
497.500                    24574.4000
498.000                    24516.0000
498.500                    24394.1000
499.000                    24066.8000
499.500                    24097.5000
500.000                    23814.6000
500.500                    24072.6000
501.000                    24029.8000
501.500                    23912.2000
502.000                    23650.2000
502.500                    23888.8000
503.000                    24006.7000
503.500                    23908.1000
504.000                    23880.4000
504.500                    24053.9000
505.000                    24235.4000
505.500                    24389.9000
506.000                    24284.8000
506.500                    24389.8000
507.000                    24547.8000
507.500                    24675.8000
508.000                    24690.0000
508.500                    24990.8000
509.000                    25354.6000
509.500                    25748.2000
510.000                    25881.7000
510.500                    26128.3000
511.000                    26345.1000
511.500                    26323.7000
512.000                    26347.1000
512.500                    25898.5000
513.000                    25556.6000
513.500                    25175.8000
514.000                    24610.9000
514.500                    24095.6000
515.000                    23828.4000
515.500                    23733.8000
516.000                    23537.4000
516.500                    22969.1000
517.000                    22672.0000
517.500                    22686.4000
518.000                    22622.6000
518.500                    22259.2000
519.000                    22342.0000
519.500                    21954.8000
520.000                    21881.2000
520.500                    21865.3000
521.000                    21806.5000
521.500                    21292.1000
522.000                    21303.4000
522.500                    21103.9000
523.000                    21118.4000
523.500                    21324.0000
524.000                    21041.2000
524.500                    21166.7000
525.000                    20990.0000
525.500                    21044.3000
526.000                    20904.7000
526.500                    20879.3000
527.000                    20880.7000
527.500                    20631.1000
528.000                    21115.1000
528.500                    21025.9000
529.000                    21165.4000
529.500                    21073.4000
530.000                    20713.2000
530.500                    20578.1000
531.000                    20489.0000
531.500                    20898.2000
532.000                    20813.1000
532.500                    20858.6000
533.000                    21061.6000
533.500                    20846.5000
534.000                    21024.9000
534.500                    20898.6000
535.000                    20980.5000
535.500                    21014.3000
536.000                    20984.8000
536.500                    21049.5000
537.000                    21201.4000
537.500                    21046.3000
538.000                    21032.3000
538.500                    20787.2000
539.000                    20618.6000
539.500                    20619.0000
540.000                    20619.9000
540.500                    20354.1000
541.000                    20224.5000
541.500                    20322.9000
542.000                    20351.7000
542.500                    20307.3000
543.000                    20346.0000
543.500                    20153.6000
544.000                    20140.3000
544.500                    20125.4000
545.000                    20094.3000
545.500                    20233.5000
546.000                    20533.3000
546.500                    20710.8000
547.000                    21274.3000
547.500                    21659.5000
548.000                    22197.2000
548.500                    22779.1000
549.000                    22717.0000
549.500                    22837.2000
550.000                    22685.0000
550.500                    22220.0000
551.000                    21615.2000
551.500                    21078.5000
552.000                    20585.3000
552.500                    20248.9000
553.000                    20025.6000
553.500                    19879.4000
554.000                    19809.5000
554.500                    19691.1000
555.000                    19679.6000
555.500                    19764.8000
556.000                    19704.5000
556.500                    19740.3000
557.000                    19803.0000
557.500                    19879.9000
558.000                    20038.7000
558.500                    20299.8000
559.000                    20048.0000
559.500                    20166.0000
560.000                    20092.6000
560.500                    19813.4000
561.000                    19931.8000
561.500                    19952.7000
562.000                    19767.9000
562.500                    19858.7000
563.000                    19855.2000
563.500                    19994.8000
564.000                    19957.4000
564.500                    19632.1000
565.000                    19362.8000
565.500                    19476.4000
566.000                    19273.4000
566.500                    19259.5000
567.000                    19182.6000
567.500                    19220.5000
568.000                    19430.3000
568.500                    19577.3000
569.000                    19403.8000
569.500                    19161.8000
570.000                    19119.6000
570.500                    19295.3000
571.000                    19077.3000
571.500                    19002.1000
572.000                    18724.1000
572.500                    18656.2000
573.000                    18685.7000
573.500                    18814.7000
574.000                    18501.6000
574.500                    18466.8000
575.000                    18244.1000
575.500                    17977.2000
576.000                    18152.9000
576.500                    18267.1000
577.000                    18290.2000
577.500                    18197.6000
578.000                    17871.2000
578.500                    17920.6000
579.000                    17824.1000
579.500                    17558.4000
580.000                    17630.9000
580.500                    17842.6000
581.000                    17796.9000
581.500                    17956.4000
582.000                    17679.3000
582.500                    18040.6000
583.000                    18331.7000
583.500                    18660.4000
584.000                    18993.1000
584.500                    19549.6000
585.000                    20213.4000
585.500                    21212.0000
586.000                    22158.3000
586.500                    22935.0000
587.000                    23854.4000
587.500                    23496.9000
588.000                    22780.9000
588.500                    21937.0000
589.000                    20730.3000
589.500                    19753.8000
590.000                    19054.2000
590.500                    18343.9000
591.000                    18100.5000
591.500                    17820.7000
592.000                    17635.1000
592.500                    17398.9000
593.000                    17438.6000
593.500                    17162.7000
594.000                    17361.7000
594.500                    17397.5000
595.000                    17299.9000
595.500                    17232.5000
596.000                    17338.4000
596.500                    17213.0000
597.000                    17098.5000
597.500                    16857.1000
598.000                    17043.3000
598.500                    16967.8000
599.000                    16631.9000
599.500                    16548.7000
600.000                    16429.4000
600.500                    16256.8000
601.000                    16222.6000
601.500                    16352.2000
602.000                    16198.9000
602.500                    16147.4000
603.000                    16043.7000
603.500                    16100.4000
604.000                    16272.6000
604.500                    16050.8000
605.000                    16038.4000
605.500                    15937.7000
606.000                    16250.3000
606.500                    15969.8000
607.000                    16063.9000
607.500                    15933.1000
608.000                    16009.1000
608.500                    15860.4000
609.000                    16045.1000
609.500                    15777.1000
610.000                    15915.7000
610.500                    15833.4000
611.000                    15834.2000
611.500                    15643.4000
612.000                    15822.9000
612.500                    15802.9000
613.000                    15778.6000
613.500                    15728.9000
614.000                    15877.5000
614.500                    15912.6000
615.000                    15883.2000
615.500                    15753.0000
616.000                    16014.0000
616.500                    16053.0000
617.000                    15840.0000
617.500                    15935.4000
618.000                    15915.1000
618.500                    15780.9000
619.000                    15951.0000
619.500                    15784.1000
620.000                    15999.7000
620.500                    16114.9000
621.000                    15753.9000
621.500                    15822.5000
622.000                    15973.9000
622.500                    15908.9000
623.000                    15893.3000
623.500                    15849.6000
624.000                    16056.7000
624.500                    15640.2000
625.000                    15678.5000
625.500                    16019.2000
626.000                    15993.1000
626.500                    15807.9000
627.000                    15988.1000
627.500                    15918.9000
628.000                    15805.7000
628.500                    15761.8000
629.000                    15860.6000
629.500                    15863.0000
630.000                    15715.4000
630.500                    15867.1000
631.000                    15855.1000
631.500                    15763.5000
632.000                    15715.5000
632.500                    15857.0000
633.000                    15808.2000
633.500                    15776.1000
634.000                    15991.8000
634.500                    15780.2000
635.000                    15698.7000
635.500                    15816.6000
636.000                    15633.8000
636.500                    15792.1000
637.000                    16044.3000
637.500                    15801.7000
638.000                    15574.4000
638.500                    15918.1000
639.000                    15903.6000
639.500                    15847.2000
640.000                    15705.0000
640.500                    15633.4000
641.000                    15780.0000
641.500                    15717.8000
642.000                    15748.0000
642.500                    15970.0000
643.000                    15772.4000
643.500                    15932.1000
644.000                    15874.1000
644.500                    15898.3000
645.000                    15973.6000
645.500                    15562.6000
646.000                    16014.2000
646.500                    15794.1000
647.000                    15890.2000
647.500                    16070.8000
648.000                    16019.3000
648.500                    16015.3000
649.000                    15991.5000
649.500                    15942.0000
650.000                    16021.1000
650.500                    15989.9000
651.000                    15866.6000
651.500                    15840.0000
652.000                    15932.0000
652.500                    15748.4000
653.000                    15706.4000
653.500                    15833.6000
654.000                    15669.6000
654.500                    15920.5000
655.000                    15764.3000
655.500                    15915.3000
656.000                    15848.5000
656.500                    15753.7000
657.000                    15631.7000
657.500                    15851.0000
658.000                    15799.8000
658.500                    15814.1000
659.000                    15530.8000
659.500                    15559.1000
660.000                    15539.7000
660.500                    15609.1000
661.000                    15607.2000
661.500                    15493.0000
662.000                    15420.1000
662.500                    15602.0000
663.000                    15443.9000
663.500                    15598.8000
664.000                    15506.2000
664.500                    15560.7000
665.000                    15582.4000
665.500                    15525.9000
666.000                    15607.6000
666.500                    15372.6000
667.000                    15507.6000
667.500                    15643.5000
668.000                    15573.9000
668.500                    15521.4000
669.000                    15381.6000
669.500                    15459.9000
670.000                    15693.6000
670.500                    15499.1000
671.000                    15609.7000
671.500                    15511.9000
672.000                    15503.3000
672.500                    15518.8000
673.000                    15596.2000
673.500                    15359.9000
674.000                    15410.2000
674.500                    15311.1000
675.000                    15720.8000
675.500                    15760.7000
676.000                    15470.9000
676.500                    15460.0000
677.000                    15403.0000
677.500                    15493.7000
678.000                    15300.3000
678.500                    15406.2000
679.000                    15463.3000
679.500                    15443.0000
680.000                    15425.1000
680.500                    15618.0000
681.000                    15432.2000
681.500                    15179.5000
682.000                    15559.6000
682.500                    15625.4000
683.000                    15507.4000
683.500                    15591.4000
684.000                    15491.7000
684.500                    15638.0000
685.000                    15761.3000
685.500                    15581.0000
686.000                    15701.6000
686.500                    15573.6000
687.000                    15567.1000
687.500                    15557.6000
688.000                    15566.2000
688.500                    15555.9000
689.000                    15464.7000
689.500                    15364.6000
690.000                    15413.1000
690.500                    15526.5000
691.000                    15585.1000
691.500                    15504.6000
692.000                    15394.0000
692.500                    15396.6000
693.000                    15484.7000
693.500                    15560.9000
694.000                    15563.4000
694.500                    15611.7000
695.000                    15361.7000
695.500                    15477.9000
696.000                    15566.4000
696.500                    15498.6000
697.000                    15658.6000
697.500                    15740.3000
698.000                    15657.2000
698.500                    15857.1000
699.000                    15681.9000
699.500                    15911.8000
700.000                    15767.2000
700.500                    15768.0000
701.000                    15731.5000
701.500                    15956.6000
702.000                    15821.8000
702.500                    15803.4000
703.000                    15930.8000
703.500                    15683.1000
704.000                    15794.5000
704.500                    15842.8000
705.000                    15956.1000
705.500                    15556.1000
706.000                    15661.0000
706.500                    15618.9000
707.000                    15767.4000
707.500                    15628.4000
708.000                    15538.2000
708.500                    15404.8000
709.000                    15089.2000
709.500                    14826.7000
710.000                    14931.5000
710.500                    14658.1000
711.000                    14798.7000
711.500                    14849.4000
712.000                    14582.9000
712.500                    14655.6000
713.000                    14558.4000
713.500                    14583.3000
714.000                    14291.1000
714.500                    14288.6000
715.000                    14437.6000
715.500                    14430.0000
716.000                    14189.3000
716.500                    14390.6000
717.000                    14495.0000
717.500                    14409.2000
718.000                    14408.8000
718.500                    14771.4000
719.000                    14998.5000
719.500                    15874.7000
720.000                    16877.8000
720.500                    18605.7000
721.000                    20245.5000
721.500                    21638.6000
722.000                    22104.9000
722.500                    22372.7000
723.000                    22112.4000
723.500                    20829.3000
724.000                    18858.6000
724.500                    16818.2000
725.000                    15102.7000
725.500                    14320.8000
726.000                    13934.4000
726.500                    13798.0000
727.000                    13749.8000
727.500                    13735.0000
728.000                    13841.7000
728.500                    13815.2000
729.000                    13827.3000
729.500                    14028.5000
730.000                    14211.9000
730.500                    14426.7000
731.000                    14598.7000
731.500                    14539.3000
732.000                    14633.7000
732.500                    14454.8000
733.000                    14121.8000
733.500                    14034.9000
734.000                    13816.2000
734.500                    13757.8000
735.000                    13506.9000
735.500                    13556.3000
736.000                    13561.8000
736.500                    13568.6000
737.000                    13602.9000
737.500                    13625.3000
738.000                    13493.5000
738.500                    13634.0000
739.000                    13520.7000
739.500                    13453.9000
740.000                    13609.6000
740.500                    13468.6000
741.000                    13567.9000
741.500                    13602.2000
742.000                    13706.8000
742.500                    13711.3000
743.000                    13642.4000
743.500                    13563.3000
744.000                    13704.4000
744.500                    13514.3000
745.000                    13743.3000
745.500                    13581.2000
746.000                    13495.2000
746.500                    13398.9000
747.000                    13368.3000
747.500                    13362.2000
748.000                    13386.4000
748.500                    13455.5000
749.000                    13234.0000
749.500                    13315.9000
750.000                    13230.5000
750.500                    13226.3000
751.000                    13118.1000
751.500                    13183.7000
752.000                    13233.6000
752.500                    13365.7000
753.000                    13175.0000
753.500                    13321.8000
754.000                    13119.5000
754.500                    13314.6000
755.000                    13266.2000
755.500                    13322.2000
756.000                    13567.2000
756.500                    13915.6000
757.000                    14309.4000
757.500                    15288.5000
758.000                    15436.1000
758.500                    15692.4000
759.000                    15031.7000
759.500                    14292.6000
760.000                    13451.5000
760.500                    13110.6000
761.000                    12991.0000
761.500                    12898.2000
762.000                    12998.5000
762.500                    12889.5000
763.000                    12709.7000
763.500                    12932.3000
764.000                    13186.6000
764.500                    13432.7000
765.000                    14078.5000
765.500                    15072.9000
766.000                    15907.9000
766.500                    16800.5000
767.000                    16795.8000
767.500                    15782.7000
768.000                    14730.8000
768.500                    13807.8000
769.000                    13153.4000
769.500                    13241.7000
770.000                    12928.2000
770.500                    12537.8000
771.000                    12714.8000
771.500                    12761.3000
772.000                    12683.7000
772.500                    12697.3000
773.000                    12704.1000
773.500                    12838.0000
774.000                    12832.7000
774.500                    12968.9000
775.000                    13128.2000
775.500                    13132.7000
776.000                    13152.4000
776.500                    13098.4000
777.000                    13235.3000
777.500                    13257.9000
778.000                    13192.3000
778.500                    13154.0000
779.000                    13231.6000
779.500                    13085.5000
780.000                    13176.1000
780.500                    13260.4000
781.000                    13360.8000
781.500                    13386.1000
782.000                    13414.5000
782.500                    13497.9000
783.000                    13363.8000
783.500                    13313.1000
784.000                    13280.7000
784.500                    13239.7000
785.000                    13184.1000
785.500                    13043.0000
786.000                    13154.4000
786.500                    13108.0000
787.000                    13066.3000
787.500                    12975.9000
788.000                    12941.2000
788.500                    12596.3000
789.000                    12666.3000
789.500                    12580.0000
790.000                    12363.4000
790.500                    12135.7000
791.000                    12099.0000
791.500                    11715.6000
792.000                    11485.4000
792.500                    11205.1000
793.000                    10739.6000
793.500                    10668.2000
794.000                    10367.1000
794.500                    10136.2000
795.000                     9926.0000
795.500                    10001.4000
796.000                     9790.6000
796.500                     9446.4000
797.000                     9438.0000
797.500                     9469.2000
798.000                     9863.9000
798.500                    11063.0000
799.000                    13162.0000
799.500                    17311.9000
800.000                    22392.0000
800.500                    27151.1000
801.000                    28980.6000
801.500                    26596.9000
802.000                    20973.9000
802.500                    14524.5000
803.000                    10046.7000
803.500                     7979.0000
804.000                     7126.7000
804.500                     6968.5000
805.000                     7144.8000
805.500                     7772.4000
806.000                     9338.7000
806.500                    12844.7000
807.000                    18589.9000
807.500                    26515.8000
808.000                    34513.1000
808.500                    38178.4000
809.000                    35964.9000
809.500                    28462.3000
810.000                    19289.3000
810.500                    12588.2000
811.000                     8944.9000
811.500                     7411.8000
812.000                     6483.8000
812.500                     5793.1000
813.000                     5297.6000
813.500                     5067.9000
814.000                     4863.4000
814.500                     4789.4000
815.000                     5007.9000
815.500                     5345.0000
816.000                     5940.7000
816.500                     6537.3000
817.000                     6924.2000
817.500                     7158.0000
818.000                     7043.4000
818.500                     6767.5000
819.000                     6320.1000
819.500                     5805.0000
820.000                     5190.3000
820.500                     4594.9000
821.000                     4238.7000
821.500                     4043.3000
822.000                     3918.3000
822.500                     3814.6000
823.000                     3700.9000
823.500                     3803.6000
824.000                     3728.0000
824.500                     3747.5000
825.000                     3861.5000
825.500                     3862.1000
826.000                     3907.9000
826.500                     3753.6000
827.000                     3773.0000
827.500                     3711.4000
828.000                     3801.9000
828.500                     3739.5000
829.000                     3704.5000
829.500                     3769.8000
830.000                     3679.7000
830.500                     3623.6000
831.000                     3598.5000
831.500                     3472.6000
832.000                     3473.6000
832.500                     3617.6000
833.000                     3540.2000
833.500                     3563.1000
834.000                     3464.5000
834.500                     3440.8000
835.000                     3452.8000
835.500                     3483.1000
836.000                     3566.1000
836.500                     3445.8000
837.000                     3435.2000
837.500                     3423.8000
838.000                     3519.0000
838.500                     3417.4000
839.000                     3452.7000
839.500                     3378.1000
840.000                     3452.6000
840.500                     3386.8000
841.000                     3326.9000
841.500                     3366.6000
842.000                     3366.7000
842.500                     3452.4000
843.000                     3506.7000
843.500                     3496.0000
844.000                     3485.4000
844.500                     3433.4000
845.000                     3528.9000
845.500                     3529.7000
846.000                     3416.1000
846.500                     3420.6000
847.000                     3310.9000
847.500                     3434.2000
848.000                     3495.6000
848.500                     3507.0000
849.000                     3442.7000
849.500                     3515.0000
850.000                     3467.7000
850.500                     3414.8000
851.000                     3436.9000
851.500                     3493.1000
852.000                     3474.7000
852.500                     3442.9000
853.000                     3443.8000
853.500                     3451.5000
854.000                     3437.5000
854.500                     3356.8000
855.000                     3441.8000
855.500                     3474.1000
856.000                     3388.8000
856.500                     3346.7000
857.000                     3354.0000
857.500                     3324.7000
858.000                     3339.0000
858.500                     3359.0000
859.000                     3229.1000
859.500                     3185.3000
860.000                     3210.3000
860.500                     3188.2000
861.000                     3210.8000
861.500                     3161.4000
862.000                     3208.4000
862.500                     3229.8000
863.000                     3356.4000
863.500                     3345.1000
864.000                     3229.4000
864.500                     3195.3000
865.000                     3276.0000
865.500                     3218.4000
866.000                     3245.1000
866.500                     3141.5000
867.000                     3207.1000
867.500                     3281.3000
868.000                     3244.3000
868.500                     3162.9000
869.000                     3184.6000
869.500                     3139.3000
870.000                     3186.5000
870.500                     3181.5000
871.000                     3169.9000
871.500                     3235.9000
872.000                     3209.7000
872.500                     3210.2000
873.000                     3256.4000
873.500                     3240.2000
874.000                     3131.8000
874.500                     3189.9000
875.000                     3139.2000
875.500                     3204.4000
876.000                     3223.5000
876.500                     3212.2000
877.000                     3173.5000
877.500                     3227.6000
878.000                     3208.4000
878.500                     3165.8000
879.000                     3242.1000
879.500                     3178.2000
880.000                     3249.6000
880.500                     3169.4000
881.000                     3285.5000
881.500                     3288.1000
882.000                     3126.0000
882.500                     3170.1000
883.000                     3204.8000
883.500                     3240.7000
884.000                     3235.1000
884.500                     3148.1000
885.000                     3127.3000
885.500                     3176.5000
886.000                     3230.8000
886.500                     3236.9000
887.000                     3135.2000
887.500                     3137.5000
888.000                     3194.1000
888.500                     3215.3000
889.000                     3191.2000
889.500                     3151.9000
890.000                     3160.0000
890.500                     3252.3000
891.000                     3187.4000
891.500                     3142.8000
892.000                     3158.9000
892.500                     3142.8000
893.000                     3206.8000
893.500                     3193.0000
894.000                     3210.2000
894.500                     3210.3000
895.000                     3092.9000
895.500                     3090.1000
896.000                     3175.7000
896.500                     3214.3000
897.000                     3127.4000
897.500                     3213.1000
898.000                     3194.3000
898.500                     3254.1000
899.000                     3152.7000
899.500                     3185.2000
900.000                     3212.0000
900.500                     3192.8000
901.000                     3215.3000
901.500                     3085.8000
902.000                     3181.5000
902.500                     3166.2000
903.000                     3211.7000
903.500                     3172.5000
904.000                     3135.7000
904.500                     3155.2000
905.000                     3224.9000
905.500                     3178.2000
906.000                     3162.7000
906.500                     3246.2000
907.000                     3042.6000
907.500                     3260.3000
908.000                     3261.0000
908.500                     3199.4000
909.000                     3134.0000
909.500                     3224.2000
910.000                     3213.7000
910.500                     3270.5000
911.000                     3232.9000
911.500                     3202.6000
912.000                     3221.5000
912.500                     3213.7000
913.000                     3241.4000
913.500                     3275.4000
914.000                     3296.6000
914.500                     3309.7000
915.000                     3206.1000
915.500                     3283.9000
916.000                     3207.0000
916.500                     3287.7000
917.000                     3187.4000
917.500                     3195.2000
918.000                     3311.3000
918.500                     3311.2000
919.000                     3258.7000
919.500                     3201.6000
920.000                     3287.7000
920.500                     3238.6000
921.000                     3280.2000
921.500                     3294.9000
922.000                     3333.1000
922.500                     3280.7000
923.000                     3226.1000
923.500                     3257.7000
924.000                     3176.3000
924.500                     3241.7000
925.000                     3302.9000
925.500                     3321.0000
926.000                     3319.7000
926.500                     3280.4000
927.000                     3328.3000
927.500                     3242.1000
928.000                     3228.3000
928.500                     3253.6000
929.000                     3278.9000
929.500                     3291.1000
930.000                     3299.4000
930.500                     3296.7000
931.000                     3301.8000
931.500                     3354.7000
932.000                     3361.2000
932.500                     3340.9000
933.000                     3332.4000
933.500                     3297.6000
934.000                     3293.1000
934.500                     3374.6000
935.000                     3303.3000
935.500                     3351.7000
936.000                     3363.5000
936.500                     3403.0000
937.000                     3414.4000
937.500                     3422.2000
938.000                     3359.4000
938.500                     3281.6000
939.000                     3369.2000
939.500                     3396.5000
940.000                     3353.6000
940.500                     3371.2000
941.000                     3359.9000
941.500                     3406.6000
942.000                     3272.6000
942.500                     3324.6000
943.000                     3438.8000
943.500                     3312.7000
944.000                     3316.5000
944.500                     3366.3000
945.000                     3431.2000
945.500                     3375.3000
946.000                     3408.8000
946.500                     3305.9000
947.000                     3344.5000
947.500                     3323.6000
948.000                     3364.5000
948.500                     3395.0000
949.000                     3383.0000
949.500                     3426.2000
950.000                     3418.7000
950.500                     3399.8000
951.000                     3296.9000
951.500                     3264.5000
952.000                     3294.6000
952.500                     3375.6000
953.000                     3293.7000
953.500                     3328.2000
954.000                     3384.7000
954.500                     3325.7000
955.000                     3262.7000
955.500                     3349.3000
956.000                     3402.4000
956.500                     3310.7000
957.000                     3304.0000
957.500                     3293.1000
958.000                     3212.3000
958.500                     3315.3000
959.000                     3215.5000
959.500                     3215.0000
960.000                     3211.1000
960.500                     3179.7000
961.000                     3108.6000
961.500                     3118.7000
962.000                     3125.0000
962.500                     3167.9000
963.000                     3194.2000
963.500                     3343.9000
964.000                     3495.4000
964.500                     3561.0000
965.000                     3545.2000
965.500                     3596.5000
966.000                     3898.9000
966.500                     4477.8000
967.000                     5317.5000
967.500                     6286.8000
968.000                     6934.7000
968.500                     6771.8000
969.000                     5707.9000
969.500                     4465.3000
970.000                     3593.5000
970.500                     3255.7000
971.000                     3189.7000
971.500                     3093.5000
972.000                     3033.0000
972.500                     2987.2000
973.000                     3153.9000
973.500                     3132.2000
974.000                     3096.0000
974.500                     3010.0000
975.000                     3091.4000
975.500                     3108.3000
976.000                     3185.7000
976.500                     3370.5000
977.000                     3455.8000
977.500                     3350.6000
978.000                     3311.0000
978.500                     3221.3000
979.000                     3215.3000
979.500                     3071.7000
980.000                     3060.9000
980.500                     3029.9000
981.000                     2957.2000
981.500                     2994.1000
982.000                     2905.4000
982.500                     2992.9000
983.000                     3045.1000
983.500                     2971.5000
984.000                     3001.5000
984.500                     2926.1000
985.000                     2923.7000
985.500                     2947.4000
986.000                     2937.1000
986.500                     2884.2000
987.000                     2966.7000
987.500                     3012.0000
988.000                     3033.5000
988.500                     3019.5000
989.000                     3010.9000
989.500                     2967.6000
990.000                     3010.0000
990.500                     2984.8000
991.000                     2963.5000
991.500                     2967.7000
992.000                     3049.5000
992.500                     2905.5000
993.000                     3012.4000
993.500                     2979.9000
994.000                     2937.7000
994.500                     2972.7000
995.000                     3018.7000
995.500                     2965.3000
996.000                     2928.9000
996.500                     2911.2000
997.000                     2910.0000
997.500                     2878.7000
998.000                     2932.0000
998.500                     2919.0000
999.000                     3035.3000
999.500                     3000.9000
1000.000                    3029.5000
1000.500                    3044.3000
1001.000                    3003.2000
1001.500                    2942.7000
1002.000                    2925.2000
1002.500                    2973.3000
1003.000                    2890.0000
1003.500                    2984.2000
1004.000                    2920.6000
1004.500                    2992.5000
1005.000                    2976.8000
1005.500                    2919.6000
1006.000                    2984.1000
1006.500                    2932.1000
1007.000                    2897.3000
1007.500                    2962.6000
1008.000                    2899.8000
1008.500                    2989.4000
1009.000                    2882.6000
1009.500                    2953.7000
1010.000                    2972.5000
1010.500                    3018.0000
1011.000                    2983.6000
1011.500                    2976.8000
1012.000                    3101.9000
1012.500                    2951.7000
1013.000                    2984.2000
1013.500                    2964.6000
1014.000                    2913.9000
1014.500                    2967.7000
1015.000                    2921.8000
1015.500                    2972.5000
1016.000                    3010.3000
1016.500                    2972.9000
1017.000                    2997.0000
1017.500                    2954.9000
1018.000                    2965.4000
1018.500                    2951.9000
1019.000                    2891.7000
1019.500                    2855.5000
1020.000                    2952.7000
1020.500                    2973.5000
1021.000                    2960.6000
1021.500                    2967.6000
1022.000                    2929.0000
1022.500                    2881.6000
1023.000                    2880.1000
1023.500                    2892.7000
1024.000                    2936.7000
1024.500                    2946.5000
1025.000                    2910.2000
1025.500                    2879.2000
1026.000                    2922.7000
1026.500                    2949.0000
1027.000                    2972.7000
1027.500                    2907.7000
1028.000                    2911.8000
1028.500                    3005.0000
1029.000                    2964.3000
1029.500                    2853.8000
1030.000                    2894.8000
1030.500                    2976.6000
1031.000                    2890.8000
1031.500                    2893.6000
1032.000                    2996.6000
1032.500                    2949.8000
1033.000                    2995.9000
1033.500                    3047.7000
1034.000                    3088.0000
1034.500                    3034.5000
1035.000                    3093.7000
1035.500                    2990.6000
1036.000                    2946.0000
1036.500                    2874.1000
1037.000                    2903.2000
1037.500                    2908.1000
1038.000                    2909.3000
1038.500                    2927.8000
1039.000                    2902.5000
1039.500                    2893.0000
1040.000                    2906.8000
1040.500                    3041.8000
1041.000                    3079.4000
1041.500                    3226.0000
1042.000                    3162.7000
1042.500                    3073.4000
1043.000                    2949.2000
1043.500                    2903.5000
1044.000                    2967.5000
1044.500                    2952.7000
1045.000                    2904.6000
1045.500                    2911.4000
1046.000                    2951.5000
1046.500                    2912.2000
1047.000                    2845.3000
1047.500                    2911.9000
1048.000                    2803.2000
1048.500                    2881.5000
1049.000                    2847.0000
1049.500                    2869.5000
1050.000                    2914.5000
1050.500                    2959.8000
1051.000                    2877.6000
1051.500                    2977.2000
1052.000                    2849.4000
1052.500                    2956.4000
1053.000                    2981.1000
1053.500                    2934.6000
1054.000                    3002.7000
1054.500                    2927.6000
1055.000                    2953.6000
1055.500                    2976.8000
1056.000                    2920.8000
1056.500                    2936.4000
1057.000                    2945.5000
1057.500                    2873.4000
1058.000                    2887.8000
1058.500                    2864.6000
1059.000                    2844.8000
1059.500                    2915.8000
1060.000                    2930.7000
1060.500                    2922.5000
1061.000                    2838.3000
1061.500                    2892.6000
1062.000                    2878.0000
1062.500                    2870.6000
1063.000                    2947.8000
1063.500                    2897.8000
1064.000                    2942.3000
1064.500                    2901.3000
1065.000                    2880.0000
1065.500                    2893.8000
1066.000                    2871.2000
1066.500                    2902.2000
1067.000                    2801.1000
1067.500                    2866.4000
1068.000                    2911.8000
1068.500                    2908.9000
1069.000                    2864.1000
1069.500                    2926.6000
1070.000                    2930.4000
1070.500                    2910.6000
1071.000                    2847.6000
1071.500                    2912.3000
1072.000                    3004.7000
1072.500                    2900.1000
1073.000                    2896.0000
1073.500                    2868.2000
1074.000                    2875.2000
1074.500                    2918.2000
1075.000                    2911.9000
1075.500                    2886.7000
1076.000                    2910.4000
1076.500                    2856.5000
1077.000                    2820.7000
1077.500                    2926.9000
1078.000                    2833.8000
1078.500                    2873.4000
1079.000                    2822.9000
1079.500                    2847.9000
1080.000                    2890.2000
1080.500                    2821.6000
1081.000                    2904.0000
1081.500                    2839.1000
1082.000                    2890.9000
1082.500                    2867.8000
1083.000                    2881.4000
1083.500                    2957.9000
1084.000                    2985.7000
1084.500                    2937.2000
1085.000                    2930.6000
1085.500                    2905.1000
1086.000                    2825.2000
1086.500                    2938.1000
1087.000                    2906.7000
1087.500                    2858.3000
1088.000                    2910.8000
1088.500                    2919.7000
1089.000                    2955.2000
1089.500                    2923.5000
1090.000                    2907.9000
1090.500                    2884.1000
1091.000                    2950.0000
1091.500                    2981.7000
1092.000                    2885.2000
1092.500                    2866.4000
1093.000                    2934.4000
1093.500                    2935.3000
1094.000                    2927.2000
1094.500                    2979.1000
1095.000                    3012.2000
1095.500                    2977.9000
1096.000                    3004.2000
1096.500                    3000.8000
1097.000                    3022.4000
1097.500                    2992.4000
1098.000                    3088.6000
1098.500                    3098.6000
1099.000                    3089.4000
1099.500                    3122.1000
1100.000                    3208.6000
1100.500                    3145.6000
1101.000                    3119.8000
1101.500                    3074.0000
1102.000                    3142.6000
1102.500                    3069.1000
1103.000                    2957.5000
1103.500                    2908.9000
1104.000                    2945.2000
1104.500                    2954.4000
1105.000                    3051.6000
1105.500                    2986.7000
1106.000                    2917.5000
1106.500                    2942.3000
1107.000                    2981.4000
1107.500                    2999.5000
1108.000                    3013.5000
1108.500                    2963.7000
1109.000                    3038.3000
1109.500                    3094.0000
1110.000                    2947.6000
1110.500                    3062.2000
1111.000                    2945.2000
1111.500                    2926.0000
1112.000                    3022.3000
1112.500                    3082.7000
1113.000                    3006.0000
1113.500                    3032.2000
1114.000                    2998.9000
1114.500                    2961.7000
1115.000                    3009.0000
1115.500                    2995.3000
1116.000                    3023.4000
1116.500                    2916.1000
1117.000                    2887.2000
1117.500                    2925.3000
1118.000                    2866.8000
1118.500                    2935.6000
1119.000                    2923.0000
1119.500                    2968.7000
1120.000                    2962.1000
1120.500                    2913.0000
1121.000                    2884.0000
1121.500                    2844.1000
1122.000                    2909.4000
1122.500                    2986.5000
1123.000                    2952.7000
1123.500                    2963.7000
1124.000                    2965.9000
1124.500                    2998.1000
1125.000                    2999.9000
1125.500                    3042.1000
1126.000                    2990.3000
1126.500                    3114.3000
1127.000                    3191.7000
1127.500                    3114.5000
1128.000                    3221.6000
1128.500                    3291.2000
1129.000                    3334.2000
1129.500                    3371.0000
1130.000                    3384.2000
1130.500                    3343.1000
1131.000                    3211.3000
1131.500                    3217.0000
1132.000                    3154.3000
1132.500                    3056.9000
1133.000                    3030.2000
1133.500                    3007.0000
1134.000                    2916.3000
1134.500                    2927.2000
1135.000                    2867.7000
1135.500                    2984.9000
1136.000                    2968.8000
1136.500                    2861.2000
1137.000                    2828.6000
1137.500                    2949.9000
1138.000                    2971.0000
1138.500                    2969.2000
1139.000                    2879.2000
1139.500                    2900.1000
1140.000                    2978.2000
1140.500                    3001.4000
1141.000                    2973.2000
1141.500                    3019.1000
1142.000                    3000.9000
1142.500                    2914.7000
1143.000                    2938.1000
1143.500                    2894.9000
1144.000                    2870.1000
1144.500                    2914.1000
1145.000                    2896.8000
1145.500                    2906.6000
1146.000                    2890.7000
1146.500                    2971.9000
1147.000                    2947.4000
1147.500                    2952.8000
1148.000                    2920.2000
1148.500                    2942.1000
1149.000                    3015.9000
1149.500                    3063.4000
1150.000                    3096.9000
1150.500                    3104.4000
1151.000                    3096.6000
1151.500                    3112.1000
1152.000                    3057.8000
1152.500                    2957.3000
1153.000                    2980.9000
1153.500                    2910.5000
1154.000                    2869.9000
1154.500                    2951.6000
1155.000                    2933.7000
1155.500                    2920.8000
1156.000                    2914.6000
1156.500                    2816.3000
1157.000                    2890.1000
1157.500                    2859.2000
1158.000                    2942.0000
1158.500                    2860.2000
1159.000                    2868.4000
1159.500                    2927.7000
1160.000                    2914.9000
1160.500                    2934.7000
1161.000                    2963.1000
1161.500                    2929.8000
1162.000                    2892.9000
1162.500                    2982.8000
1163.000                    2959.1000
1163.500                    2867.3000
1164.000                    2980.8000
1164.500                    2961.3000
1165.000                    2980.0000
1165.500                    3012.5000
1166.000                    2961.5000
1166.500                    2989.7000
1167.000                    3058.3000
1167.500                    3074.8000
1168.000                    3003.2000
1168.500                    3032.0000
1169.000                    3050.7000
1169.500                    3066.7000
1170.000                    2986.8000
1170.500                    3110.6000
1171.000                    3109.4000
1171.500                    3045.7000
1172.000                    3094.6000
1172.500                    3088.9000
1173.000                    3035.7000
1173.500                    3111.5000
1174.000                    3067.6000
1174.500                    3180.2000
1175.000                    3154.3000
1175.500                    3064.1000
1176.000                    2959.7000
1176.500                    2925.4000
1177.000                    2953.0000
1177.500                    2865.8000
1178.000                    2740.7000
1178.500                    2721.1000
1179.000                    2711.0000
1179.500                    2676.7000
1180.000                    2668.9000
1180.500                    2629.6000
1181.000                    2657.5000
1181.500                    2406.7000
1182.000                    2571.3000
1182.500                    2528.9000
1183.000                    2398.7000
1183.500                    2330.4000
1184.000                    2348.8000
1184.500                    2397.2000
1185.000                    2401.6000
1185.500                    2338.0000
1186.000                    2293.9000
1186.500                    2267.4000
1187.000                    2207.4000
1187.500                    2232.4000
1188.000                    2264.7000
1188.500                    2198.2000
1189.000                    2158.6000
1189.500                    2125.7000
1190.000                    2126.6000
1190.500                    2088.0000
1191.000                    2143.0000
1191.500                    2136.9000
1192.000                    2090.0000
1192.500                    2120.6000
1193.000                    2142.0000
1193.500                    2123.8000
1194.000                    2044.3000
1194.500                    2034.5000
1195.000                    2070.0000
1195.500                    2052.6000
1196.000                    2133.2000
1196.500                    2117.9000
1197.000                    2060.5000
1197.500                    2043.6000
1198.000                    2069.8000
1198.500                    2117.3000
1199.000                    2066.6000
1199.500                    2032.4000
1200.000                    2118.7000
1200.500                    2113.4000
1201.000                    2137.4000
1201.500                    2166.5000
1202.000                    2164.7000
1202.500                    2176.3000
1203.000                    2074.2000
1203.500                    2058.7000
1204.000                    2029.9000
1204.500                    2046.9000
1205.000                    2088.0000
1205.500                    2087.9000
1206.000                    2128.8000
1206.500                    2125.6000
1207.000                    2124.2000
1207.500                    2124.1000
1208.000                    2199.5000
1208.500                    2198.0000
1209.000                    2215.1000
1209.500                    2216.8000
1210.000                    2168.6000
1210.500                    2229.3000
1211.000                    2206.0000
1211.500                    2177.8000
1212.000                    2169.9000
1212.500                    2172.5000
1213.000                    2197.8000
1213.500                    2202.2000
1214.000                    2292.8000
1214.500                    2259.3000
1215.000                    2229.1000
1215.500                    2153.2000
1216.000                    2148.5000
1216.500                    2135.9000
1217.000                    2144.1000
1217.500                    2234.8000
1218.000                    2167.7000
1218.500                    2191.7000
1219.000                    2109.2000
1219.500                    2105.9000
1220.000                    2024.5000
1220.500                    2035.9000
1221.000                    2014.5000
1221.500                    1948.4000
1222.000                    1946.5000
1222.500                    1920.4000
1223.000                    1980.0000
1223.500                    1968.3000
1224.000                    1961.1000
1224.500                    1951.2000
1225.000                    2062.9000
1225.500                    2191.5000
1226.000                    2280.8000
1226.500                    2363.5000
1227.000                    2408.3000
1227.500                    2350.3000
1228.000                    2135.9000
1228.500                    1992.7000
1229.000                    1923.4000
1229.500                    1837.6000
1230.000                    1787.4000
1230.500                    1816.4000
1231.000                    1833.3000
1231.500                    1890.0000
1232.000                    1958.6000
1232.500                    2222.7000
1233.000                    2785.9000
1233.500                    3699.8000
1234.000                    4988.0000
1234.500                    6279.4000
1235.000                    6981.0000
1235.500                    6789.0000
1236.000                    5750.0000
1236.500                    4368.1000
1237.000                    3030.9000
1237.500                    2088.8000
1238.000                    1637.5000
1238.500                    1419.3000
1239.000                    1312.4000
1239.500                    1203.6000
1240.000                    1208.7000
1240.500                    1161.9000
1241.000                    1231.4000
1241.500                    1281.0000
1242.000                    1357.1000
1242.500                    1427.5000
1243.000                    1589.2000
1243.500                    1720.2000
1244.000                    1659.4000
1244.500                    1694.8000
1245.000                    1661.6000
1245.500                    1650.7000
1246.000                    1545.9000
1246.500                    1454.0000
1247.000                    1410.9000
1247.500                    1388.1000
1248.000                    1301.4000
1248.500                    1275.6000
1249.000                    1238.3000
1249.500                    1208.0000
1250.000                    1092.7000
1250.500                     966.8000
1251.000                    1009.2000
1251.500                     915.9000
1252.000                     919.9000
1252.500                     947.3000
1253.000                     930.1000
1253.500                    1006.7000
1254.000                     954.5000
1254.500                     932.2000
1255.000                     963.5000
1255.500                     965.3000
1256.000                    1000.2000
1256.500                    1001.1000
1257.000                     947.7000
1257.500                     912.0000
1258.000                     892.6000
1258.500                     927.5000
1259.000                     892.9000
1259.500                     902.9000
1260.000                     874.4000
