# Transition                      C 1s
# Notes                           
# Creation Comment                
# Energy Mode                     KE
# Start Energy in eV              957
# End Energy in eV                991
# Energy Step in eV               0.1
# Number Of Sweeps                3
# Dwell Time per Sweep in s       0.3
# Analyser Mode                   CAE
# Pass Energy in eV/Retard Ratio  25
# Magnification                   high
# Divide Voltages By 10           off
# Excitation Source               Mg Ka 1253.6 eV normal
# Excitation Energy in eV         1253.6
# Analyser Workfunction in eV     4.5
# Entrance Slit                   6 x 12 mm
# Exit Slit                       5 x 11 mm
# 
# 
# Kinetic Energy in eV         Counts
# --------------------         ------
957.000                     2606.7500
957.100                     2617.0000
957.200                     2655.7500
957.300                     2522.7500
957.400                     2560.7500
957.500                     2528.0000
957.600                     2574.2500
957.700                     2531.0000
957.800                     2498.2500
957.900                     2490.0000
958.000                     2485.2500
958.100                     2520.7500
958.200                     2455.0000
958.300                     2534.2500
958.400                     2467.7500
958.500                     2493.2500
958.600                     2485.2500
958.700                     2492.0000
958.800                     2420.5000
958.900                     2497.2500
959.000                     2479.5000
959.100                     2503.7500
959.200                     2375.5000
959.300                     2357.7500
959.400                     2419.7500
959.500                     2442.7500
959.600                     2382.7500
959.700                     2302.2500
959.800                     2369.5000
959.900                     2371.0000
960.000                     2378.7500
960.100                     2425.7500
960.200                     2441.7500
960.300                     2434.7500
960.400                     2509.0000
960.500                     2443.5000
960.600                     2396.2500
960.700                     2456.5000
960.800                     2434.7500
960.900                     2437.2500
961.000                     2473.5000
961.100                     2443.0000
961.200                     2444.7500
961.300                     2565.0000
961.400                     2501.0000
961.500                     2530.2500
961.600                     2549.7500
961.700                     2535.7500
961.800                     2571.0000
961.900                     2651.2500
962.000                     2611.7500
962.100                     2599.0000
962.200                     2620.2500
962.300                     2599.5000
962.400                     2635.2500
962.500                     2672.2500
962.600                     2710.2500
962.700                     2749.7500
962.800                     2648.0000
962.900                     2638.0000
963.000                     2735.5000
963.100                     2713.7500
963.200                     2690.0000
963.300                     2626.5000
963.400                     2701.5000
963.500                     2812.0000
963.600                     2874.2500
963.700                     2918.5000
963.800                     2917.2500
963.900                     2832.7500
964.000                     2973.7500
964.100                     2939.0000
964.200                     3028.7500
964.300                     3083.0000
964.400                     3232.0000
964.500                     3309.7500
964.600                     3510.2500
964.700                     3521.2500
964.800                     3629.0000
964.900                     3770.5000
965.000                     4047.2500
965.100                     4178.5000
965.200                     4371.2500
965.300                     4641.2500
965.400                     4935.0000
965.500                     5113.0000
965.600                     5426.0000
965.700                     5836.5000
965.800                     6126.0000
965.900                     6579.7500
966.000                     7038.5000
966.100                     7462.7500
966.200                     7934.7500
966.300                     8474.2500
966.400                     9212.5000
966.500                     9858.2500
966.600                    10472.5000
966.700                    11214.5000
966.800                    11668.5000
966.900                    12276.5000
967.000                    12867.0000
967.100                    12892.7500
967.200                    13173.2500
967.300                    13110.5000
967.400                    12985.0000
967.500                    12918.7500
967.600                    12655.7500
967.700                    12487.5000
967.800                    12499.7500
967.900                    12472.0000
968.000                    12521.0000
968.100                    12824.7500
968.200                    13639.7500
968.300                    14057.5000
968.400                    14974.7500
968.500                    15908.0000
968.600                    16753.2500
968.700                    17517.7500
968.800                    18029.5000
968.900                    18389.0000
969.000                    18191.2500
969.100                    17980.5000
969.200                    16746.7500
969.300                    15570.5000
969.400                    13704.2500
969.500                    11857.5000
969.600                    10007.0000
969.700                     8480.0000
969.800                     6759.0000
969.900                     5505.7500
970.000                     4659.2500
970.100                     3865.7500
970.200                     3422.2500
970.300                     2961.0000
970.400                     2604.2500
970.500                     2382.5000
970.600                     2249.2500
970.700                     2035.7500
970.800                     1908.2500
970.900                     1836.2500
971.000                     1799.5000
971.100                     1701.5000
971.200                     1653.0000
971.300                     1578.7500
971.400                     1531.5000
971.500                     1548.2500
971.600                     1572.2500
971.700                     1508.7500
971.800                     1509.7500
971.900                     1488.7500
972.000                     1509.2500
972.100                     1432.7500
972.200                     1406.2500
972.300                     1415.7500
972.400                     1352.2500
972.500                     1399.2500
972.600                     1388.2500
972.700                     1475.2500
972.800                     1431.0000
972.900                     1333.2500
973.000                     1340.7500
973.100                     1358.2500
973.200                     1383.0000
973.300                     1416.2500
973.400                     1415.7500
973.500                     1391.5000
973.600                     1430.0000
973.700                     1462.2500
973.800                     1540.2500
973.900                     1434.0000
974.000                     1507.7500
974.100                     1505.7500
974.200                     1476.2500
974.300                     1463.7500
974.400                     1546.2500
974.500                     1565.0000
974.600                     1575.7500
974.700                     1653.0000
974.800                     1685.0000
974.900                     1681.5000
975.000                     1769.5000
975.100                     1760.2500
975.200                     1788.7500
975.300                     1795.0000
975.400                     1939.0000
975.500                     1839.2500
975.600                     1903.2500
975.700                     1957.7500
975.800                     1968.7500
975.900                     2009.0000
976.000                     1982.2500
976.100                     2044.0000
976.200                     2052.2500
976.300                     2013.0000
976.400                     2025.7500
976.500                     2083.2500
976.600                     2146.0000
976.700                     2212.0000
976.800                     2298.0000
976.900                     2396.7500
977.000                     2491.2500
977.100                     2544.2500
977.200                     2574.0000
977.300                     2655.5000
977.400                     2653.0000
977.500                     2659.7500
977.600                     2630.0000
977.700                     2585.5000
977.800                     2384.0000
977.900                     2303.0000
978.000                     2266.5000
978.100                     2128.2500
978.200                     2030.5000
978.300                     1924.0000
978.400                     1832.2500
978.500                     1827.2500
978.600                     1810.5000
978.700                     1804.0000
978.800                     1733.0000
978.900                     1776.5000
979.000                     1760.5000
979.100                     1767.0000
979.200                     1676.7500
979.300                     1720.2500
979.400                     1690.0000
979.500                     1623.5000
979.600                     1554.0000
979.700                     1467.5000
979.800                     1408.7500
979.900                     1328.5000
980.000                     1222.5000
980.100                     1121.5000
980.200                     1060.5000
980.300                     1033.2500
980.400                     1021.7500
980.500                      952.0000
980.600                      889.2500
980.700                      872.7500
980.800                      832.7500
980.900                      811.2500
981.000                      795.2500
981.100                      810.0000
981.200                      795.5000
981.300                      753.5000
981.400                      780.0000
981.500                      767.5000
981.600                      764.5000
981.700                      785.2500
981.800                      794.5000
981.900                      751.2500
982.000                      773.0000
982.100                      742.0000
982.200                      776.2500
982.300                      786.7500
982.400                      821.5000
982.500                      830.7500
982.600                      789.7500
982.700                      780.5000
982.800                      746.7500
982.900                      761.7500
983.000                      755.7500
983.100                      739.5000
983.200                      761.7500
983.300                      777.2500
983.400                      769.0000
983.500                      790.5000
983.600                      784.7500
983.700                      807.2500
983.800                      812.5000
983.900                      805.5000
984.000                      802.0000
984.100                      824.7500
984.200                      785.5000
984.300                      772.2500
984.400                      787.2500
984.500                      802.2500
984.600                      820.5000
984.700                      847.0000
984.800                      812.7500
984.900                      764.2500
985.000                      810.2500
985.100                      838.2500
985.200                      839.0000
985.300                      866.7500
985.400                      792.2500
985.500                      806.2500
985.600                      835.5000
985.700                      815.5000
985.800                      840.7500
985.900                      862.7500
986.000                      828.0000
986.100                      822.0000
986.200                      859.2500
986.300                      834.0000
986.400                      838.7500
986.500                      861.5000
986.600                      852.2500
986.700                      822.5000
986.800                      818.7500
986.900                      814.5000
987.000                      845.2500
987.100                      852.0000
987.200                      847.2500
987.300                      827.5000
987.400                      754.0000
987.500                      806.7500
987.600                      783.5000
987.700                      762.0000
987.800                      763.7500
987.900                      793.0000
988.000                      781.7500
988.100                      818.2500
988.200                      768.7500
988.300                      750.2500
988.400                      826.2500
988.500                      792.5000
988.600                      748.0000
988.700                      750.7500
988.800                      753.7500
988.900                      812.7500
989.000                      795.7500
989.100                      749.5000
989.200                      781.2500
989.300                      754.2500
989.400                      766.2500
989.500                      822.7500
989.600                      776.0000
989.700                      742.2500
989.800                      772.2500
989.900                      769.7500
990.000                      741.5000
990.100                      756.5000
990.200                      728.0000
990.300                      686.0000
990.400                      713.0000
990.500                      739.0000
990.600                      747.0000
990.700                      696.7500
990.800                      709.7500
990.900                      715.5000
991.000                      692.2500
